N Landsat 8 Relative Spectral Response V1.2
Aer
  426.0000 0.0000000  23474.18
  427.0000 0.0000730  23419.20
  428.0000 0.0006090  23364.49
  429.0000 0.0016280  23310.02
  430.0000 0.0034210  23255.81
  431.0000 0.0080190  23201.86
  432.0000 0.0247670  23148.15
  433.0000 0.0856880  23094.69
  434.0000 0.2541490  23041.47
  435.0000 0.5178210  22988.51
  436.0000 0.7651170  22935.78
  437.0000 0.9087490  22883.30
  438.0000 0.9582040  22831.05
  439.0000 0.9773930  22779.04
  440.0000 0.9837900  22727.27
  441.0000 0.9890520  22675.74
  442.0000 0.9867130  22624.43
  443.0000 0.9936830  22573.36
  444.0000 0.9931370  22522.52
  445.0000 1.0000000  22471.91
  446.0000 0.9969690  22421.52
  447.0000 0.9827800  22371.36
  448.0000 0.9726920  22321.43
  449.0000 0.9058080  22271.71
  450.0000 0.7456060  22222.22
  451.0000 0.4713290  22172.95
  452.0000 0.2264120  22123.89
  453.0000 0.0928600  22075.06
  454.0000 0.0366030  22026.43
  455.0000 0.0145370  21978.02
  456.0000 0.0058290  21929.82
  457.0000 0.0024140  21881.84
  458.0000 0.0009840  21834.06
  459.0000 0.0002550  21786.49
  460.0000 0.0000000  21739.13
Blu
  435.0000 0.0000000  22988.51
  436.0000 0.0000100  22935.78
  437.0000 0.0000610  22883.30
  438.0000 0.0001170  22831.05
  439.0000 0.0002410  22779.04
  440.0000 0.0003490  22727.27
  441.0000 0.0004550  22675.74
  442.0000 0.0007560  22624.43
  443.0000 0.0011970  22573.36
  444.0000 0.0020700  22522.52
  445.0000 0.0037120  22471.91
  446.0000 0.0068690  22421.52
  447.0000 0.0132120  22371.36
  448.0000 0.0271700  22321.43
  449.0000 0.0586060  22271.71
  450.0000 0.1308760  22222.22
  451.0000 0.2713700  22172.95
  452.0000 0.4935420  22123.89
  453.0000 0.7239710  22075.06
  454.0000 0.8575100  22026.43
  455.0000 0.8942220  21978.02
  456.0000 0.9030340  21929.82
  457.0000 0.9109280  21881.84
  458.0000 0.9098800  21834.06
  459.0000 0.8994750  21786.49
  460.0000 0.8979770  21739.13
  461.0000 0.8896670  21691.97
  462.0000 0.8835420  21645.02
  463.0000 0.8774530  21598.27
  464.0000 0.8810110  21551.72
  465.0000 0.8747210  21505.38
  466.0000 0.8796880  21459.23
  467.0000 0.8865690  21413.28
  468.0000 0.8919130  21367.52
  469.0000 0.8876800  21321.96
  470.0000 0.8611570  21276.60
  471.0000 0.8485330  21231.42
  472.0000 0.8408280  21186.44
  473.0000 0.8283390  21141.65
  474.0000 0.8442020  21097.05
  475.0000 0.8658640  21052.63
  476.0000 0.8684970  21008.40
  477.0000 0.8902530  20964.36
  478.0000 0.9125380  20920.50
  479.0000 0.9103850  20876.83
  480.0000 0.9188220  20833.33
  481.0000 0.9317260  20790.02
  482.0000 0.9318130  20746.89
  483.0000 0.9542480  20703.93
  484.0000 0.9555450  20661.16
  485.0000 0.9624200  20618.56
  486.0000 0.9564240  20576.13
  487.0000 0.9533520  20533.88
  488.0000 0.9785640  20491.80
  489.0000 0.9891040  20449.90
  490.0000 0.9856150  20408.16
  491.0000 0.9894690  20366.60
  492.0000 0.9822620  20325.20
  493.0000 0.9688010  20283.98
  494.0000 0.9673320  20242.91
  495.0000 0.9768360  20202.02
  496.0000 0.9887290  20161.29
  497.0000 0.9808260  20120.72
  498.0000 0.9673610  20080.32
  499.0000 0.9547540  20040.08
  500.0000 0.9641320  20000.00
  501.0000 0.9661250  19960.08
  502.0000 0.9667720  19920.32
  503.0000 0.9818340  19880.72
  504.0000 0.9823200  19841.27
  505.0000 0.9656850  19801.98
  506.0000 0.9631350  19762.85
  507.0000 0.9722610  19723.87
  508.0000 0.9964980  19685.04
  509.0000 1.0000000  19646.37
  510.0000 0.9556000  19607.84
  511.0000 0.8448930  19569.47
  512.0000 0.5345920  19531.25
  513.0000 0.1907380  19493.18
  514.0000 0.0483290  19455.25
  515.0000 0.0138940  19417.48
  516.0000 0.0053280  19379.84
  517.0000 0.0026110  19342.36
  518.0000 0.0015570  19305.02
  519.0000 0.0011000  19267.82
  520.0000 0.0007850  19230.77
  521.0000 0.0005160  19193.86
  522.0000 0.0003210  19157.09
  523.0000 0.0001620  19120.46
  524.0000 0.0000720  19083.97
  525.0000 0.0000570  19047.62
  526.0000 0.0000230  19011.41
  527.0000 0.0000320  18975.33
  528.0000 0.0000000  18939.39
Grn
  512.0000 0.0000000  19531.25
  513.0000 0.0000160  19493.18
  514.0000 0.0001100  19455.25
  515.0000 0.0002470  19417.48
  516.0000 0.0003620  19379.84
  517.0000 0.0006480  19342.36
  518.0000 0.0009350  19305.02
  519.0000 0.0013320  19267.82
  520.0000 0.0018160  19230.77
  521.0000 0.0025150  19193.86
  522.0000 0.0034460  19157.09
  523.0000 0.0048800  19120.46
  524.0000 0.0070240  19083.97
  525.0000 0.0104410  19047.62
  526.0000 0.0162470  19011.41
  527.0000 0.0255130  18975.33
  528.0000 0.0414510  18939.39
  529.0000 0.0705510  18903.59
  530.0000 0.1234440  18867.92
  531.0000 0.2116800  18832.39
  532.0000 0.3538850  18796.99
  533.0000 0.5458560  18761.73
  534.0000 0.7412050  18726.59
  535.0000 0.8652250  18691.59
  536.0000 0.9273960  18656.72
  537.0000 0.9546270  18621.97
  538.0000 0.9541630  18587.36
  539.0000 0.9592150  18552.88
  540.0000 0.9613280  18518.52
  541.0000 0.9649020  18484.29
  542.0000 0.9698730  18450.18
  543.0000 0.9524890  18416.21
  544.0000 0.9613970  18382.35
  545.0000 0.9782700  18348.62
  546.0000 0.9775330  18315.02
  547.0000 0.9770010  18281.54
  548.0000 0.9808840  18248.18
  549.0000 0.9907840  18214.94
  550.0000 1.0000000  18181.82
  551.0000 0.9922640  18148.82
  552.0000 0.9826420  18115.94
  553.0000 0.9838320  18083.18
  554.0000 0.9777650  18050.54
  555.0000 0.9650810  18018.02
  556.0000 0.9573140  17985.61
  557.0000 0.9462450  17953.32
  558.0000 0.9478710  17921.15
  559.0000 0.9590380  17889.09
  560.0000 0.9665340  17857.14
  561.0000 0.9776560  17825.31
  562.0000 0.9664470  17793.59
  563.0000 0.9533990  17761.99
  564.0000 0.9583140  17730.50
  565.0000 0.9700390  17699.12
  566.0000 0.9786070  17667.84
  567.0000 0.9833970  17636.68
  568.0000 0.9809600  17605.63
  569.0000 0.9745220  17574.69
  570.0000 0.9672290  17543.86
  571.0000 0.9794060  17513.13
  572.0000 0.9782080  17482.52
  573.0000 0.9758180  17452.01
  574.0000 0.9743920  17421.60
  575.0000 0.9799730  17391.30
  576.0000 0.9688270  17361.11
  577.0000 0.9691810  17331.02
  578.0000 0.9678380  17301.04
  579.0000 0.9829560  17271.16
  580.0000 0.9795980  17241.38
  581.0000 0.9638110  17211.70
  582.0000 0.9688860  17182.13
  583.0000 0.9836550  17152.66
  584.0000 0.9866570  17123.29
  585.0000 0.9742070  17094.02
  586.0000 0.9464070  17064.85
  587.0000 0.9044780  17035.78
  588.0000 0.8092750  17006.80
  589.0000 0.6849740  16977.93
  590.0000 0.5253040  16949.15
  591.0000 0.3453640  16920.47
  592.0000 0.1904670  16891.89
  593.0000 0.0878330  16863.41
  594.0000 0.0353930  16835.02
  595.0000 0.0140770  16806.72
  596.0000 0.0059440  16778.52
  597.0000 0.0025740  16750.42
  598.0000 0.0010460  16722.41
  599.0000 0.0003940  16694.49
  600.0000 0.0000850  16666.67
  601.0000 0.0000000  16638.94
Red
  625.0000 0.0000000  16000.00
  626.0000 0.0002700  15974.44
  627.0000 0.0008950  15948.96
  628.0000 0.0018500  15923.57
  629.0000 0.0036480  15898.25
  630.0000 0.0071970  15873.02
  631.0000 0.0145150  15847.86
  632.0000 0.0304320  15822.78
  633.0000 0.0668610  15797.79
  634.0000 0.1485180  15772.87
  635.0000 0.2997780  15748.03
  636.0000 0.5268120  15723.27
  637.0000 0.7644430  15698.59
  638.0000 0.9054730  15673.98
  639.0000 0.9479490  15649.45
  640.0000 0.9508230  15625.00
  641.0000 0.9474180  15600.62
  642.0000 0.9518310  15576.32
  643.0000 0.9627050  15552.10
  644.0000 0.9750750  15527.95
  645.0000 0.9841730  15503.88
  646.0000 0.9836130  15479.88
  647.0000 0.9834340  15455.95
  648.0000 0.9829110  15432.10
  649.0000 0.9736360  15408.32
  650.0000 0.9594410  15384.62
  651.0000 0.9556410  15360.98
  652.0000 0.9555480  15337.42
  653.0000 0.9533370  15313.94
  654.0000 0.9566280  15290.52
  655.0000 0.9816880  15267.18
  656.0000 1.0000000  15243.90
  657.0000 0.9923880  15220.70
  658.0000 0.9846150  15197.57
  659.0000 0.9815680  15174.51
  660.0000 0.9769600  15151.52
  661.0000 0.9729800  15128.59
  662.0000 0.9810800  15105.74
  663.0000 0.9968040  15082.96
  664.0000 0.9921420  15060.24
  665.0000 0.9806780  15037.59
  666.0000 0.9640020  15015.02
  667.0000 0.9621540  14992.50
  668.0000 0.9707780  14970.06
  669.0000 0.9671800  14947.68
  670.0000 0.9669280  14925.37
  671.0000 0.9499280  14903.13
  672.0000 0.8488550  14880.95
  673.0000 0.6093590  14858.84
  674.0000 0.3163500  14836.80
  675.0000 0.1239460  14814.81
  676.0000 0.0460330  14792.90
  677.0000 0.0177020  14771.05
  678.0000 0.0073330  14749.26
  679.0000 0.0032050  14727.54
  680.0000 0.0014020  14705.88
  681.0000 0.0005540  14684.29
  682.0000 0.0001170  14662.76
  683.0000 0.0000000  14641.29
NIR
  829.0000 0.0000000  12062.73
  830.0000 0.0000110  12048.19
  831.0000 0.0000500  12033.69
  832.0000 0.0001000  12019.23
  833.0000 0.0002390  12004.80
  834.0000 0.0003140  11990.41
  835.0000 0.0004950  11976.05
  836.0000 0.0007190  11961.72
  837.0000 0.0009860  11947.43
  838.0000 0.0014450  11933.17
  839.0000 0.0021070  11918.95
  840.0000 0.0031600  11904.76
  841.0000 0.0047440  11890.61
  842.0000 0.0070590  11876.48
  843.0000 0.0109000  11862.40
  844.0000 0.0173460  11848.34
  845.0000 0.0283320  11834.32
  846.0000 0.0481910  11820.33
  847.0000 0.0843630  11806.38
  848.0000 0.1453650  11792.45
  849.0000 0.2497330  11778.56
  850.0000 0.4035260  11764.71
  851.0000 0.5826230  11750.88
  852.0000 0.7450370  11737.09
  853.0000 0.8903150  11723.33
  854.0000 0.9602150  11709.60
  855.0000 0.9868330  11695.91
  856.0000 0.9731330  11682.24
  857.0000 0.9806060  11668.61
  858.0000 0.9961200  11655.01
  859.0000 1.0000000  11641.44
  860.0000 0.9897770  11627.91
  861.0000 0.9807330  11614.40
  862.0000 0.9759350  11600.93
  863.0000 0.9720430  11587.49
  864.0000 0.9573570  11574.07
  865.0000 0.9512090  11560.69
  866.0000 0.9470440  11547.34
  867.0000 0.9531620  11534.03
  868.0000 0.9514990  11520.74
  869.0000 0.9484500  11507.48
  870.0000 0.9400940  11494.25
  871.0000 0.9506320  11481.06
  872.0000 0.9560790  11467.89
  873.0000 0.9664600  11454.75
  874.0000 0.9698210  11441.65
  875.0000 0.9366100  11428.57
  876.0000 0.8910660  11415.53
  877.0000 0.7887330  11402.51
  878.0000 0.6353200  11389.52
  879.0000 0.4483640  11376.56
  880.0000 0.2888470  11363.64
  881.0000 0.1746190  11350.74
  882.0000 0.1003430  11337.87
  883.0000 0.0582650  11325.03
  884.0000 0.0345320  11312.22
  885.0000 0.0207200  11299.44
  886.0000 0.0124400  11286.68
  887.0000 0.0076010  11273.96
  888.0000 0.0047020  11261.26
  889.0000 0.0029440  11248.59
  890.0000 0.0018700  11235.96
  891.0000 0.0011920  11223.34
  892.0000 0.0007430  11210.76
  893.0000 0.0004230  11198.21
  894.0000 0.0002410  11185.68
  895.0000 0.0001160  11173.18
  896.0000 0.0000440  11160.71
  897.0000 0.0000000  11148.27
Pan
  487.0000 0.0000000  20533.88
  488.0000 0.0002160  20491.80
  489.0000 0.0005140  20449.90
  490.0000 0.0010130  20408.16
  491.0000 0.0015870  20366.60
  492.0000 0.0026190  20325.20
  493.0000 0.0038410  20283.98
  494.0000 0.0061950  20242.91
  495.0000 0.0090030  20202.02
  496.0000 0.0155150  20161.29
  497.0000 0.0232700  20120.72
  498.0000 0.0427230  20080.32
  499.0000 0.0665560  20040.08
  500.0000 0.1242690  20000.00
  501.0000 0.1960060  19960.08
  502.0000 0.3232320  19920.32
  503.0000 0.4724960  19880.72
  504.0000 0.5983020  19841.27
  505.0000 0.7148160  19801.98
  506.0000 0.7760090  19762.85
  507.0000 0.8165550  19723.87
  508.0000 0.8318810  19685.04
  509.0000 0.8379940  19646.37
  510.0000 0.8489750  19607.84
  511.0000 0.8616680  19569.47
  512.0000 0.8627050  19531.25
  513.0000 0.8596400  19493.18
  514.0000 0.8585320  19455.25
  515.0000 0.8582440  19417.48
  516.0000 0.8571480  19379.84
  517.0000 0.8557590  19342.36
  518.0000 0.8584550  19305.02
  519.0000 0.8628340  19267.82
  520.0000 0.8606090  19230.77
  521.0000 0.8559930  19193.86
  522.0000 0.8527850  19157.09
  523.0000 0.8501830  19120.46
  524.0000 0.8527880  19083.97
  525.0000 0.8573170  19047.62
  526.0000 0.8591300  19011.41
  527.0000 0.8598760  18975.33
  528.0000 0.8615080  18939.39
  529.0000 0.8634940  18903.59
  530.0000 0.8602650  18867.92
  531.0000 0.8551020  18832.39
  532.0000 0.8644230  18796.99
  533.0000 0.8792490  18761.73
  534.0000 0.8855930  18726.59
  535.0000 0.8886630  18691.59
  536.0000 0.8947580  18656.72
  537.0000 0.9020170  18621.97
  538.0000 0.9062940  18587.36
  539.0000 0.9092900  18552.88
  540.0000 0.9117340  18518.52
  541.0000 0.9140000  18484.29
  542.0000 0.9097760  18450.18
  543.0000 0.9029390  18416.21
  544.0000 0.9089190  18382.35
  545.0000 0.9198590  18348.62
  546.0000 0.9216200  18315.02
  547.0000 0.9194560  18281.54
  548.0000 0.9130200  18248.18
  549.0000 0.9051340  18214.94
  550.0000 0.8927020  18181.82
  551.0000 0.8785990  18148.82
  552.0000 0.8768380  18115.94
  553.0000 0.8794430  18083.18
  554.0000 0.8783030  18050.54
  555.0000 0.8756920  18018.02
  556.0000 0.8726660  17985.61
  557.0000 0.8694780  17953.32
  558.0000 0.8753610  17921.15
  559.0000 0.8847590  17889.09
  560.0000 0.8899030  17857.14
  561.0000 0.8934270  17825.31
  562.0000 0.8859480  17793.59
  563.0000 0.8740970  17761.99
  564.0000 0.8756740  17730.50
  565.0000 0.8824020  17699.12
  566.0000 0.8913750  17667.84
  567.0000 0.9011940  17636.68
  568.0000 0.9035280  17605.63
  569.0000 0.9028260  17574.69
  570.0000 0.9075510  17543.86
  571.0000 0.9143500  17513.13
  572.0000 0.9149320  17482.52
  573.0000 0.9131900  17452.01
  574.0000 0.9155080  17421.60
  575.0000 0.9195540  17391.30
  576.0000 0.9208020  17361.11
  577.0000 0.9210400  17331.02
  578.0000 0.9244310  17301.04
  579.0000 0.9291050  17271.16
  580.0000 0.9300680  17241.38
  581.0000 0.9295510  17211.70
  582.0000 0.9375490  17182.13
  583.0000 0.9488630  17152.66
  584.0000 0.9470840  17123.29
  585.0000 0.9402730  17094.02
  586.0000 0.9408130  17064.85
  587.0000 0.9441360  17035.78
  588.0000 0.9456740  17006.80
  589.0000 0.9465660  16977.93
  590.0000 0.9424620  16949.15
  591.0000 0.9362980  16920.47
  592.0000 0.9396210  16891.89
  593.0000 0.9466590  16863.41
  594.0000 0.9423740  16835.02
  595.0000 0.9338390  16806.72
  596.0000 0.9342500  16778.52
  597.0000 0.9378400  16750.42
  598.0000 0.9408380  16722.41
  599.0000 0.9436260  16694.49
  600.0000 0.9524150  16666.67
  601.0000 0.9636640  16638.94
  602.0000 0.9673810  16611.30
  603.0000 0.9682410  16583.75
  604.0000 0.9682330  16556.29
  605.0000 0.9678780  16528.93
  606.0000 0.9650830  16501.65
  607.0000 0.9613670  16474.46
  608.0000 0.9572320  16447.37
  609.0000 0.9529390  16420.36
  610.0000 0.9493450  16393.44
  611.0000 0.9460060  16366.61
  612.0000 0.9480810  16339.87
  613.0000 0.9524650  16313.21
  614.0000 0.9545260  16286.64
  615.0000 0.9558140  16260.16
  616.0000 0.9591490  16233.77
  617.0000 0.9632160  16207.46
  618.0000 0.9641580  16181.23
  619.0000 0.9639530  16155.09
  620.0000 0.9659430  16129.03
  621.0000 0.9687890  16103.06
  622.0000 0.9726880  16077.17
  623.0000 0.9770260  16051.36
  624.0000 0.9780280  16025.64
  625.0000 0.9779010  16000.00
  626.0000 0.9741580  15974.44
  627.0000 0.9690780  15948.96
  628.0000 0.9695830  15923.57
  629.0000 0.9722970  15898.25
  630.0000 0.9729060  15873.02
  631.0000 0.9727080  15847.86
  632.0000 0.9697320  15822.78
  633.0000 0.9657800  15797.79
  634.0000 0.9655610  15772.87
  635.0000 0.9668350  15748.03
  636.0000 0.9666410  15723.27
  637.0000 0.9658990  15698.59
  638.0000 0.9720670  15673.98
  639.0000 0.9810770  15649.45
  640.0000 0.9809710  15625.00
  641.0000 0.9777220  15600.62
  642.0000 0.9744050  15576.32
  643.0000 0.9711230  15552.10
  644.0000 0.9631390  15527.95
  645.0000 0.9532600  15503.88
  646.0000 0.9534940  15479.88
  647.0000 0.9575360  15455.95
  648.0000 0.9638510  15432.10
  649.0000 0.9709280  15408.32
  650.0000 0.9694530  15384.62
  651.0000 0.9647500  15360.98
  652.0000 0.9665410  15337.42
  653.0000 0.9706130  15313.94
  654.0000 0.9739410  15290.52
  655.0000 0.9770550  15267.18
  656.0000 0.9828940  15243.90
  657.0000 0.9897700  15220.70
  658.0000 0.9883020  15197.57
  659.0000 0.9835420  15174.51
  660.0000 0.9879680  15151.52
  661.0000 0.9955380  15128.59
  662.0000 0.9985790  15105.74
  663.0000 1.0000000  15082.96
  664.0000 0.9998100  15060.24
  665.0000 0.9990610  15037.59
  666.0000 0.9978910  15015.02
  667.0000 0.9965800  14992.50
  668.0000 0.9925550  14970.06
  669.0000 0.9873690  14947.68
  670.0000 0.9858620  14925.37
  671.0000 0.9857610  14903.13
  672.0000 0.9556790  14880.95
  673.0000 0.9139450  14858.84
  674.0000 0.7801400  14836.80
  675.0000 0.6101970  14814.81
  676.0000 0.4385560  14792.90
  677.0000 0.2667140  14771.05
  678.0000 0.1673130  14749.26
  679.0000 0.0940130  14727.54
  680.0000 0.0575640  14705.88
  681.0000 0.0347870  14684.29
  682.0000 0.0228820  14662.76
  683.0000 0.0151780  14641.29
  684.0000 0.0107550  14619.88
  685.0000 0.0076630  14598.54
  686.0000 0.0057560  14577.26
  687.0000 0.0042920  14556.04
  688.0000 0.0032200  14534.88
  689.0000 0.0022830  14513.79
  690.0000 0.0015450  14492.75
  691.0000 0.0008790  14471.78
  692.0000 0.0002140  14450.87
  693.0000 0.0000000  14430.01
