N MERIS Camera Average Relative Spectral Response
b1
  405.1000 0.0000000  24685.26
  405.2000 0.0000178  24679.17
  405.3000 0.0000672  24673.08
  405.4000 0.0001905  24667.00
  405.5000 0.0003369  24660.91
  405.6000 0.0007269  24654.83
  405.7000 0.0012343  24648.76
  405.8000 0.0020529  24642.68
  405.9000 0.0033432  24636.61
  406.0000 0.0053327  24630.54
  406.1000 0.0083292  24624.48
  406.2000 0.0127399  24618.41
  406.3000 0.0190811  24612.36
  406.4000 0.0279821  24606.30
  406.5000 0.0401861  24600.25
  406.6000 0.0565115  24594.20
  406.7000 0.0778204  24588.15
  406.8000 0.1049430  24582.10
  406.9000 0.1385840  24576.06
  407.0000 0.1792560  24570.02
  407.1000 0.2271160  24563.99
  407.2000 0.2819170  24557.96
  407.3000 0.3429160  24551.93
  407.4000 0.4088460  24545.90
  407.5000 0.4780130  24539.88
  407.6000 0.5483020  24533.86
  407.7000 0.6174270  24527.84
  407.8000 0.6830900  24521.82
  407.9000 0.7432220  24515.81
  408.0000 0.7962430  24509.80
  408.1000 0.8411400  24503.80
  408.2000 0.8776250  24497.80
  408.3000 0.9060850  24491.80
  408.4000 0.9274840  24485.80
  408.5000 0.9431890  24479.80
  408.6000 0.9547010  24473.81
  408.7000 0.9634460  24467.82
  408.8000 0.9705610  24461.84
  408.9000 0.9767790  24455.86
  409.0000 0.9824040  24449.88
  409.1000 0.9873680  24443.90
  409.2000 0.9913810  24437.93
  409.3000 0.9940980  24431.96
  409.4000 0.9952900  24425.99
  409.5000 0.9949640  24420.02
  409.6000 0.9934030  24414.06
  409.7000 0.9911330  24408.10
  409.8000 0.9888130  24402.15
  409.9000 0.9870830  24396.19
  410.0000 0.9864200  24390.24
  410.1000 0.9870220  24384.30
  410.2000 0.9887650  24378.35
  410.3000 0.9912360  24372.41
  410.4000 0.9938370  24366.47
  410.5000 0.9959410  24360.54
  410.6000 0.9970440  24354.60
  410.7000 0.9968920  24348.67
  410.8000 0.9955450  24342.75
  410.9000 0.9933640  24336.82
  411.0000 0.9909140  24330.90
  411.1000 0.9888290  24324.98
  411.2000 0.9876490  24319.07
  411.3000 0.9876890  24313.15
  411.4000 0.9889550  24307.24
  411.5000 0.9911500  24301.34
  411.6000 0.9937430  24295.43
  411.7000 0.9961070  24289.53
  411.8000 0.9976690  24283.63
  411.9000 0.9980620  24277.74
  412.0000 0.9972100  24271.84
  412.1000 0.9953460  24265.95
  412.2000 0.9929590  24260.07
  412.3000 0.9906670  24254.18
  412.4000 0.9890610  24248.30
  412.5000 0.9885610  24242.42
  412.6000 0.9893120  24236.55
  412.7000 0.9911420  24230.68
  412.8000 0.9936120  24224.81
  412.9000 0.9961230  24218.94
  413.0000 0.9980690  24213.08
  413.1000 0.9989830  24207.21
  413.2000 0.9986570  24201.36
  413.3000 0.9971970  24195.50
  413.4000 0.9949870  24189.65
  413.5000 0.9926010  24183.80
  413.6000 0.9906550  24177.95
  413.7000 0.9896550  24172.11
  413.8000 0.9898670  24166.26
  413.9000 0.9912570  24160.43
  414.0000 0.9934950  24154.59
  414.1000 0.9960390  24148.76
  414.2000 0.9982730  24142.93
  414.3000 0.9996580  24137.10
  414.4000 0.9998690  24131.27
  414.5000 0.9988750  24125.45
  414.6000 0.9969450  24119.63
  414.7000 0.9945800  24113.82
  414.8000 0.9923910  24108.00
  414.9000 0.9909410  24102.19
  415.0000 0.9906030  24096.39
  415.1000 0.9914710  24090.58
  415.2000 0.9933270  24084.78
  415.3000 0.9956960  24078.98
  415.4000 0.9979530  24073.18
  415.5000 0.9994730  24067.39
  415.6000 0.9997620  24061.60
  415.7000 0.9985620  24055.81
  415.8000 0.9958690  24050.02
  415.9000 0.9918960  24044.24
  416.0000 0.9869370  24038.46
  416.1000 0.9812240  24032.68
  416.2000 0.9747530  24026.91
  416.3000 0.9671640  24021.14
  416.4000 0.9576930  24015.37
  416.5000 0.9451950  24009.60
  416.6000 0.9282900  24003.84
  416.7000 0.9055430  23998.08
  416.8000 0.8756980  23992.32
  416.9000 0.8379090  23986.57
  417.0000 0.7918740  23980.82
  417.1000 0.7379860  23975.07
  417.2000 0.6772880  23969.32
  417.3000 0.6114090  23963.58
  417.4000 0.5424030  23957.83
  417.5000 0.4724830  23952.10
  417.6000 0.4039000  23946.36
  417.7000 0.3386620  23940.63
  417.8000 0.2784230  23934.90
  417.9000 0.2243800  23929.17
  418.0000 0.1772020  23923.44
  418.1000 0.1371240  23917.72
  418.2000 0.1039560  23912.00
  418.3000 0.0772056  23906.29
  418.4000 0.0561717  23900.57
  418.5000 0.0400290  23894.86
  418.6000 0.0279420  23889.15
  418.7000 0.0191045  23883.45
  418.8000 0.0127946  23877.75
  418.9000 0.0083941  23872.05
  419.0000 0.0053939  23866.35
  419.1000 0.0033954  23860.65
  419.2000 0.0020936  23854.96
  419.3000 0.0012647  23849.27
  419.4000 0.0007485  23843.59
  419.5000 0.0004339  23837.90
  419.6000 0.0002144  23832.22
  419.7000 0.0000267  23826.54
  419.8000 0.0000000  23820.87
b2
  435.0000 0.0000000  22988.51
  435.1000 0.0000324  22983.22
  435.2000 0.0001054  22977.94
  435.3000 0.0001892  22972.66
  435.4000 0.0003330  22967.39
  435.5000 0.0005748  22962.11
  435.6000 0.0009728  22956.84
  435.7000 0.0016139  22951.57
  435.8000 0.0026245  22946.31
  435.9000 0.0041831  22941.04
  436.0000 0.0065366  22935.78
  436.1000 0.0100131  22930.52
  436.2000 0.0150330  22925.26
  436.3000 0.0221206  22920.01
  436.4000 0.0318991  22914.76
  436.5000 0.0450932  22909.51
  436.6000 0.0624844  22904.26
  436.7000 0.0848600  22899.02
  436.8000 0.1129640  22893.77
  436.9000 0.1473950  22888.53
  437.0000 0.1885660  22883.30
  437.1000 0.2365450  22878.06
  437.2000 0.2909840  22872.83
  437.3000 0.3511060  22867.60
  437.4000 0.4156620  22862.37
  437.5000 0.4830580  22857.14
  437.6000 0.5513400  22851.92
  437.7000 0.6183660  22846.70
  437.8000 0.6820630  22841.48
  437.9000 0.7405640  22836.26
  438.0000 0.7924690  22831.05
  438.1000 0.8368700  22825.84
  438.2000 0.8734620  22820.63
  438.3000 0.9025630  22815.42
  438.4000 0.9249870  22810.22
  438.5000 0.9419050  22805.02
  438.6000 0.9546110  22799.82
  438.7000 0.9643420  22794.62
  438.8000 0.9721200  22789.43
  438.9000 0.9786390  22784.23
  439.0000 0.9842470  22779.04
  439.1000 0.9889880  22773.86
  439.2000 0.9927110  22768.67
  439.3000 0.9952150  22763.49
  439.4000 0.9963780  22758.31
  439.5000 0.9962500  22753.13
  439.6000 0.9950900  22747.95
  439.7000 0.9933390  22742.78
  439.8000 0.9915320  22737.61
  439.9000 0.9901860  22732.44
  440.0000 0.9896810  22727.27
  440.1000 0.9901730  22722.11
  440.2000 0.9915620  22716.95
  440.3000 0.9935200  22711.79
  440.4000 0.9955740  22706.63
  440.5000 0.9972280  22701.48
  440.6000 0.9980830  22696.32
  440.7000 0.9979410  22691.17
  440.8000 0.9968510  22686.03
  440.9000 0.9951010  22680.88
  441.0000 0.9931400  22675.74
  441.1000 0.9914700  22670.60
  441.2000 0.9905220  22665.46
  441.3000 0.9905430  22660.32
  441.4000 0.9915400  22655.19
  441.5000 0.9932770  22650.06
  441.6000 0.9953330  22644.93
  441.7000 0.9972070  22639.80
  441.8000 0.9984460  22634.68
  441.9000 0.9987530  22629.55
  442.0000 0.9980680  22624.43
  442.1000 0.9965730  22619.32
  442.2000 0.9946570  22614.20
  442.3000 0.9928100  22609.09
  442.4000 0.9915060  22603.98
  442.5000 0.9910810  22598.87
  442.6000 0.9916550  22593.76
  442.7000 0.9930940  22588.66
  442.8000 0.9950530  22583.56
  442.9000 0.9970540  22578.46
  443.0000 0.9986120  22573.36
  443.1000 0.9993520  22568.27
  443.2000 0.9991020  22563.18
  443.3000 0.9979380  22558.09
  443.4000 0.9961660  22553.00
  443.5000 0.9942390  22547.91
  443.6000 0.9926510  22542.83
  443.7000 0.9918100  22537.75
  443.8000 0.9919380  22532.67
  443.9000 0.9930130  22527.60
  444.0000 0.9947810  22522.52
  444.1000 0.9968110  22517.45
  444.2000 0.9986090  22512.38
  444.3000 0.9997400  22507.31
  444.4000 0.9999360  22502.25
  444.5000 0.9991590  22497.19
  444.6000 0.9976170  22492.13
  444.7000 0.9957070  22487.07
  444.8000 0.9939150  22482.01
  444.9000 0.9926970  22476.96
  445.0000 0.9923600  22471.91
  445.1000 0.9929890  22466.86
  445.2000 0.9944160  22461.81
  445.3000 0.9962610  22456.77
  445.4000 0.9980170  22451.73
  445.5000 0.9991650  22446.69
  445.6000 0.9992790  22441.65
  445.7000 0.9981110  22436.62
  445.8000 0.9956110  22431.58
  445.9000 0.9918900  22426.55
  446.0000 0.9871220  22421.52
  446.1000 0.9814180  22416.50
  446.2000 0.9747020  22411.47
  446.3000 0.9665970  22406.45
  446.4000 0.9563950  22401.43
  446.5000 0.9430720  22396.42
  446.6000 0.9254070  22391.40
  446.7000 0.9021520  22386.39
  446.8000 0.8722090  22381.38
  446.9000 0.8348410  22376.37
  447.0000 0.7897690  22371.36
  447.1000 0.7373230  22366.36
  447.2000 0.6784570  22361.36
  447.3000 0.6146240  22356.36
  447.4000 0.5476870  22351.36
  447.5000 0.4796470  22346.37
  447.6000 0.4125820  22341.38
  447.7000 0.3484260  22336.39
  447.8000 0.2887730  22331.40
  447.9000 0.2348240  22326.41
  448.0000 0.1872850  22321.43
  448.1000 0.1464750  22316.45
  448.2000 0.1123350  22311.47
  448.3000 0.0844720  22306.49
  448.4000 0.0622825  22301.52
  448.5000 0.0450153  22296.54
  448.6000 0.0318926  22291.57
  448.7000 0.0221523  22286.61
  448.8000 0.0150848  22281.64
  448.9000 0.0100718  22276.68
  449.0000 0.0065917  22271.71
  449.1000 0.0042290  22266.76
  449.2000 0.0026603  22261.80
  449.3000 0.0016409  22256.84
  449.4000 0.0009925  22251.89
  449.5000 0.0005886  22246.94
  449.6000 0.0002998  22241.99
  449.7000 0.0001444  22237.05
  449.8000 0.0000333  22232.10
  449.9000 0.0000000  22227.16
b3
  482.4000 0.0000000  20729.68
  482.5000 0.0000151  20725.39
  482.6000 0.0000645  20721.09
  482.7000 0.0001509  20716.80
  482.8000 0.0002644  20712.51
  482.9000 0.0004544  20708.22
  483.0000 0.0007667  20703.93
  483.1000 0.0012694  20699.65
  483.2000 0.0020620  20695.36
  483.3000 0.0032862  20691.08
  483.4000 0.0051375  20686.80
  483.5000 0.0078806  20682.52
  483.6000 0.0118595  20678.25
  483.7000 0.0175086  20673.97
  483.8000 0.0253564  20669.70
  483.9000 0.0360177  20665.43
  484.0000 0.0501933  20661.16
  484.1000 0.0686196  20656.89
  484.2000 0.0920296  20652.62
  484.3000 0.1210850  20648.36
  484.4000 0.1562890  20644.10
  484.5000 0.1979550  20639.83
  484.6000 0.2460580  20635.58
  484.7000 0.3002050  20631.32
  484.8000 0.3595860  20627.06
  484.9000 0.4229650  20622.81
  485.0000 0.4888170  20618.56
  485.1000 0.5553030  20614.31
  485.2000 0.6204700  20610.06
  485.3000 0.6824090  20605.81
  485.4000 0.7394200  20601.57
  485.5000 0.7902390  20597.32
  485.6000 0.8340430  20593.08
  485.7000 0.8705570  20588.84
  485.8000 0.9000360  20584.60
  485.9000 0.9231740  20580.37
  486.0000 0.9409870  20576.13
  486.1000 0.9546040  20571.90
  486.2000 0.9651220  20567.67
  486.3000 0.9734590  20563.44
  486.4000 0.9802710  20559.21
  486.5000 0.9859310  20554.98
  486.6000 0.9905580  20550.76
  486.7000 0.9941060  20546.54
  486.8000 0.9964790  20542.32
  486.9000 0.9976340  20538.10
  487.0000 0.9976590  20533.88
  487.1000 0.9967960  20529.67
  487.2000 0.9954270  20525.45
  487.3000 0.9939980  20521.24
  487.4000 0.9929340  20517.03
  487.5000 0.9925430  20512.82
  487.6000 0.9929500  20508.61
  487.7000 0.9940740  20504.41
  487.8000 0.9956470  20500.21
  487.9000 0.9972860  20496.00
  488.0000 0.9985930  20491.80
  488.1000 0.9992490  20487.60
  488.2000 0.9990960  20483.41
  488.3000 0.9981790  20479.21
  488.4000 0.9967310  20475.02
  488.5000 0.9951170  20470.83
  488.6000 0.9937430  20466.64
  488.7000 0.9929560  20462.45
  488.8000 0.9929570  20458.27
  488.9000 0.9937490  20454.08
  489.0000 0.9951410  20449.90
  489.1000 0.9967900  20445.72
  489.2000 0.9982910  20441.54
  489.3000 0.9992770  20437.36
  489.4000 0.9995060  20433.18
  489.5000 0.9989280  20429.01
  489.6000 0.9976910  20424.84
  489.7000 0.9961070  20420.67
  489.8000 0.9945760  20416.50
  489.9000 0.9934830  20412.33
  490.0000 0.9931030  20408.16
  490.1000 0.9935370  20404.00
  490.2000 0.9946800  20399.84
  490.3000 0.9962530  20395.68
  490.4000 0.9978680  20391.52
  490.5000 0.9991300  20387.36
  490.6000 0.9997290  20383.20
  490.7000 0.9995210  20379.05
  490.8000 0.9985630  20374.90
  490.9000 0.9970990  20370.75
  491.0000 0.9954960  20366.60
  491.1000 0.9941580  20362.45
  491.2000 0.9934220  20358.31
  491.3000 0.9934750  20354.16
  491.4000 0.9943090  20350.02
  491.5000 0.9957190  20345.88
  491.6000 0.9973610  20341.74
  491.7000 0.9988300  20337.60
  491.8000 0.9997650  20333.47
  491.9000 0.9999380  20329.34
  492.0000 0.9993110  20325.20
  492.1000 0.9980440  20321.07
  492.2000 0.9964540  20316.94
  492.3000 0.9949400  20312.82
  492.4000 0.9938760  20308.69
  492.5000 0.9935240  20304.57
  492.6000 0.9939590  20300.45
  492.7000 0.9950550  20296.33
  492.8000 0.9965000  20292.21
  492.9000 0.9978740  20288.09
  493.0000 0.9987340  20283.98
  493.1000 0.9987040  20279.86
  493.2000 0.9975430  20275.75
  493.3000 0.9951650  20271.64
  493.4000 0.9916100  20267.53
  493.5000 0.9869620  20263.42
  493.6000 0.9812560  20259.32
  493.7000 0.9743590  20255.22
  493.8000 0.9658940  20251.11
  493.9000 0.9552030  20247.01
  494.0000 0.9413620  20242.91
  494.1000 0.9232800  20238.82
  494.2000 0.8998400  20234.72
  494.3000 0.8700620  20230.63
  494.4000 0.8332840  20226.54
  494.5000 0.7892470  20222.45
  494.6000 0.7382390  20218.36
  494.7000 0.6810850  20214.27
  494.8000 0.6191000  20210.19
  494.9000 0.5539870  20206.10
  495.0000 0.4875920  20202.02
  495.1000 0.4218620  20197.94
  495.2000 0.3586120  20193.86
  495.3000 0.2994040  20189.78
  495.4000 0.2454520  20185.71
  495.5000 0.1975110  20181.63
  495.6000 0.1559780  20177.56
  495.7000 0.1208710  20173.49
  495.8000 0.0919056  20169.42
  495.9000 0.0685706  20165.36
  496.0000 0.0501884  20161.29
  496.1000 0.0360369  20157.23
  496.2000 0.0253844  20153.16
  496.3000 0.0175423  20149.10
  496.4000 0.0118951  20145.04
  496.5000 0.0079123  20140.99
  496.6000 0.0051634  20136.93
  496.7000 0.0033059  20132.88
  496.8000 0.0020768  20128.82
  496.9000 0.0012804  20124.77
  497.0000 0.0007745  20120.72
  497.1000 0.0004597  20116.68
  497.2000 0.0002371  20112.63
  497.3000 0.0000847  20108.59
  497.4000 0.0000000  20104.54
b4
  502.4000 0.0000000  19904.46
  502.5000 0.0000157  19900.50
  502.6000 0.0000805  19896.54
  502.7000 0.0001607  19892.58
  502.8000 0.0002804  19888.62
  502.9000 0.0004804  19884.67
  503.0000 0.0008076  19880.72
  503.1000 0.0013323  19876.76
  503.2000 0.0021570  19872.81
  503.3000 0.0034262  19868.87
  503.4000 0.0053393  19864.92
  503.5000 0.0081651  19860.97
  503.6000 0.0122507  19857.03
  503.7000 0.0180340  19853.09
  503.8000 0.0260443  19849.15
  503.9000 0.0368973  19845.21
  504.0000 0.0512895  19841.27
  504.1000 0.0699486  19837.33
  504.2000 0.0935976  19833.40
  504.3000 0.1228810  19829.47
  504.4000 0.1582890  19825.54
  504.5000 0.2001120  19821.61
  504.6000 0.2483070  19817.68
  504.7000 0.3024670  19813.75
  504.8000 0.3617710  19809.83
  504.9000 0.4249920  19805.90
  505.0000 0.4906090  19801.98
  505.1000 0.5567970  19798.06
  505.2000 0.6216350  19794.14
  505.3000 0.6832420  19790.22
  505.4000 0.7399570  19786.31
  505.5000 0.7905390  19782.39
  505.6000 0.8341770  19778.48
  505.7000 0.8706110  19774.57
  505.8000 0.9000860  19770.66
  505.9000 0.9232850  19766.75
  506.0000 0.9411980  19762.85
  506.1000 0.9549280  19758.94
  506.2000 0.9655460  19755.04
  506.3000 0.9739540  19751.14
  506.4000 0.9808010  19747.24
  506.5000 0.9864610  19743.34
  506.6000 0.9910600  19739.44
  506.7000 0.9945710  19735.54
  506.8000 0.9969140  19731.65
  506.9000 0.9980580  19727.76
  507.0000 0.9980970  19723.87
  507.1000 0.9972720  19719.98
  507.2000 0.9959560  19716.09
  507.3000 0.9945800  19712.20
  507.4000 0.9935560  19708.32
  507.5000 0.9931800  19704.43
  507.6000 0.9935720  19700.55
  507.7000 0.9946520  19696.67
  507.8000 0.9961610  19692.79
  507.9000 0.9977320  19688.92
  508.0000 0.9989800  19685.04
  508.1000 0.9995990  19681.17
  508.2000 0.9994380  19677.29
  508.3000 0.9985400  19673.42
  508.4000 0.9971320  19669.55
  508.5000 0.9955650  19665.68
  508.6000 0.9942310  19661.82
  508.7000 0.9934630  19657.95
  508.8000 0.9934560  19654.09
  508.9000 0.9942120  19650.23
  509.0000 0.9955460  19646.37
  509.1000 0.9971290  19642.51
  509.2000 0.9985700  19638.65
  509.3000 0.9995130  19634.79
  509.4000 0.9997270  19630.94
  509.5000 0.9991610  19627.09
  509.6000 0.9979570  19623.23
  509.7000 0.9964180  19619.38
  509.8000 0.9949270  19615.54
  509.9000 0.9938580  19611.69
  510.0000 0.9934770  19607.84
  510.1000 0.9938820  19604.00
  510.2000 0.9949740  19600.16
  510.3000 0.9964830  19596.32
  510.4000 0.9980370  19592.48
  510.5000 0.9992530  19588.64
  510.6000 0.9998300  19584.80
  510.7000 0.9996270  19580.97
  510.8000 0.9986980  19577.13
  510.9000 0.9972750  19573.30
  511.0000 0.9957130  19569.47
  511.1000 0.9944030  19565.64
  511.2000 0.9936720  19561.82
  511.3000 0.9937030  19557.99
  511.4000 0.9944910  19554.17
  511.5000 0.9958420  19550.34
  511.6000 0.9974220  19546.52
  511.7000 0.9988410  19542.70
  511.8000 0.9997480  19538.88
  511.9000 0.9999200  19535.07
  512.0000 0.9993160  19531.25
  512.1000 0.9980870  19527.44
  512.2000 0.9965390  19523.62
  512.3000 0.9950560  19519.81
  512.4000 0.9940030  19516.00
  512.5000 0.9936350  19512.20
  512.6000 0.9940300  19508.39
  512.7000 0.9950670  19504.58
  512.8000 0.9964490  19500.78
  512.9000 0.9977690  19496.98
  513.0000 0.9985920  19493.18
  513.1000 0.9985520  19489.38
  513.2000 0.9974050  19485.58
  513.3000 0.9950600  19481.78
  513.4000 0.9915430  19477.99
  513.5000 0.9869320  19474.20
  513.6000 0.9812430  19470.40
  513.7000 0.9743500  19466.61
  513.8000 0.9658780  19462.83
  513.9000 0.9551710  19459.04
  514.0000 0.9413380  19455.25
  514.1000 0.9232900  19451.47
  514.2000 0.8999490  19447.69
  514.3000 0.8703470  19443.90
  514.4000 0.8337900  19440.12
  514.5000 0.7900670  19436.35
  514.6000 0.7393900  19432.57
  514.7000 0.6826160  19428.79
  514.8000 0.6210140  19425.02
  514.9000 0.5561950  19421.25
  515.0000 0.4900790  19417.48
  515.1000 0.4245000  19413.71
  515.2000 0.3613400  19409.94
  515.3000 0.3021330  19406.17
  515.4000 0.2480500  19402.41
  515.5000 0.1999440  19398.64
  515.6000 0.1581630  19394.88
  515.7000 0.1227970  19391.12
  515.8000 0.0935597  19387.36
  515.9000 0.0699370  19383.60
  516.0000 0.0513008  19379.84
  516.1000 0.0369125  19376.09
  516.2000 0.0260614  19372.34
  516.3000 0.0180545  19368.58
  516.4000 0.0122696  19364.83
  516.5000 0.0081824  19361.08
  516.6000 0.0053524  19357.34
  516.7000 0.0034359  19353.59
  516.8000 0.0021645  19349.85
  516.9000 0.0013378  19346.10
  517.0000 0.0008115  19342.36
  517.1000 0.0004829  19338.62
  517.2000 0.0002088  19334.88
  517.3000 0.0001212  19331.14
  517.4000 0.0000000  19327.41
b5
  552.4000 0.0000000  18102.82
  552.5000 0.0000405  18099.55
  552.6000 0.0000724  18096.27
  552.7000 0.0001693  18093.00
  552.8000 0.0002947  18089.73
  552.9000 0.0005036  18086.45
  553.0000 0.0008443  18083.18
  553.1000 0.0013895  18079.91
  553.2000 0.0022435  18076.64
  553.3000 0.0035544  18073.38
  553.4000 0.0055275  18070.11
  553.5000 0.0084319  18066.85
  553.6000 0.0126245  18063.58
  553.7000 0.0185411  18060.32
  553.8000 0.0267177  18057.06
  553.9000 0.0377833  18053.80
  554.0000 0.0524127  18050.54
  554.1000 0.0713546  18047.28
  554.2000 0.0952974  18044.03
  554.3000 0.1248880  18040.77
  554.4000 0.1606390  18037.52
  554.5000 0.2027530  18034.27
  554.6000 0.2512340  18031.01
  554.7000 0.3055890  18027.76
  554.8000 0.3650130  18024.51
  554.9000 0.4283320  18021.27
  555.0000 0.4938910  18018.02
  555.1000 0.5599760  18014.77
  555.2000 0.6245880  18011.53
  555.3000 0.6859080  18008.28
  555.4000 0.7423570  18005.04
  555.5000 0.7926000  18001.80
  555.6000 0.8359420  17998.56
  555.7000 0.8720860  17995.32
  555.8000 0.9013200  17992.08
  555.9000 0.9243570  17988.85
  556.0000 0.9421360  17985.61
  556.1000 0.9557860  17982.38
  556.2000 0.9663490  17979.14
  556.3000 0.9747220  17975.91
  556.4000 0.9815470  17972.68
  556.5000 0.9871750  17969.45
  556.6000 0.9917400  17966.22
  556.7000 0.9952070  17963.00
  556.8000 0.9975020  17959.77
  556.9000 0.9986020  17956.55
  557.0000 0.9986030  17953.32
  557.1000 0.9977520  17950.10
  557.2000 0.9964200  17946.88
  557.3000 0.9950400  17943.66
  557.4000 0.9940160  17940.44
  557.5000 0.9936420  17937.22
  557.6000 0.9940310  17934.00
  557.7000 0.9951010  17930.79
  557.8000 0.9965910  17927.57
  557.9000 0.9981360  17924.36
  558.0000 0.9993530  17921.15
  558.1000 0.9999400  17917.94
  558.2000 0.9997490  17914.73
  558.3000 0.9988260  17911.52
  558.4000 0.9973970  17908.31
  558.5000 0.9958160  17905.10
  558.6000 0.9944690  17901.90
  558.7000 0.9936910  17898.69
  558.8000 0.9936720  17895.49
  558.9000 0.9944130  17892.29
  559.0000 0.9957290  17889.09
  559.1000 0.9972930  17885.89
  559.2000 0.9987140  17882.69
  559.3000 0.9996370  17879.49
  559.4000 0.9998330  17876.30
  559.5000 0.9992490  17873.10
  559.6000 0.9980270  17869.91
  559.7000 0.9964700  17866.71
  559.8000 0.9949590  17863.52
  559.9000 0.9938670  17860.33
  560.0000 0.9934620  17857.14
  560.1000 0.9938430  17853.95
  560.2000 0.9949130  17850.77
  560.3000 0.9964040  17847.58
  560.4000 0.9979460  17844.40
  560.5000 0.9991520  17841.21
  560.6000 0.9997230  17838.03
  560.7000 0.9995140  17834.85
  560.8000 0.9985750  17831.67
  560.9000 0.9971340  17828.49
  561.0000 0.9955480  17825.31
  561.1000 0.9942070  17822.14
  561.2000 0.9934400  17818.96
  561.3000 0.9934360  17815.78
  561.4000 0.9941930  17812.61
  561.5000 0.9955210  17809.44
  561.6000 0.9970900  17806.27
  561.7000 0.9985070  17803.10
  561.8000 0.9994190  17799.93
  561.9000 0.9995970  17796.76
  562.0000 0.9989950  17793.59
  562.1000 0.9977570  17790.43
  562.2000 0.9961880  17787.26
  562.3000 0.9946700  17784.10
  562.4000 0.9935710  17780.94
  562.5000 0.9931560  17777.78
  562.6000 0.9935090  17774.62
  562.7000 0.9945170  17771.46
  562.8000 0.9958870  17768.30
  562.9000 0.9972160  17765.14
  563.0000 0.9980660  17761.99
  563.1000 0.9980640  17758.84
  563.2000 0.9969640  17755.68
  563.3000 0.9946670  17752.53
  563.4000 0.9911970  17749.38
  563.5000 0.9866400  17746.23
  563.6000 0.9810200  17743.08
  563.7000 0.9742280  17739.93
  563.8000 0.9659040  17736.79
  563.9000 0.9554080  17733.64
  564.0000 0.9418660  17730.50
  564.1000 0.9241930  17727.35
  564.2000 0.9013070  17724.21
  564.3000 0.8722160  17721.07
  564.4000 0.8361930  17717.93
  564.5000 0.7930100  17714.79
  564.6000 0.7428360  17711.65
  564.7000 0.6865010  17708.52
  564.8000 0.6252270  17705.38
  564.9000 0.5605890  17702.25
  565.0000 0.4945340  17699.12
  565.1000 0.4288850  17695.98
  565.2000 0.3655430  17692.85
  565.3000 0.3060460  17689.72
  565.4000 0.2515790  17686.59
  565.5000 0.2030590  17683.47
  565.6000 0.1608450  17680.34
  565.7000 0.1250540  17677.21
  565.8000 0.0954129  17674.09
  565.9000 0.0714152  17670.97
  566.0000 0.0524588  17667.84
  566.1000 0.0377985  17664.72
  566.2000 0.0267258  17661.60
  566.3000 0.0185411  17658.48
  566.4000 0.0126165  17655.37
  566.5000 0.0084257  17652.25
  566.6000 0.0055192  17649.14
  566.7000 0.0035481  17646.02
  566.8000 0.0022383  17642.91
  566.9000 0.0013850  17639.80
  567.0000 0.0008413  17636.68
  567.1000 0.0005013  17633.57
  567.2000 0.0002600  17630.47
  567.3000 0.0000491  17627.36
  567.4000 0.0000000  17624.25
b6
  612.5000 0.0000000  16326.53
  612.6000 0.0000630  16323.87
  612.7000 0.0001498  16321.20
  612.8000 0.0002634  16318.54
  612.9000 0.0004544  16315.88
  613.0000 0.0007686  16313.21
  613.1000 0.0012758  16310.55
  613.2000 0.0020770  16307.89
  613.3000 0.0033165  16305.23
  613.4000 0.0051960  16302.58
  613.5000 0.0079823  16299.92
  613.6000 0.0120297  16297.26
  613.7000 0.0177788  16294.61
  613.8000 0.0257695  16291.95
  613.9000 0.0366430  16289.30
  614.0000 0.0510914  16286.64
  614.1000 0.0698802  16283.99
  614.2000 0.0937363  16281.34
  614.3000 0.1233300  16278.69
  614.4000 0.1592060  16276.04
  614.5000 0.2015920  16273.39
  614.6000 0.2504940  16270.75
  614.7000 0.3054390  16268.10
  614.8000 0.3655920  16265.45
  614.9000 0.4297440  16262.81
  615.0000 0.4961790  16260.16
  615.1000 0.5631010  16257.52
  615.2000 0.6284550  16254.88
  615.3000 0.6903410  16252.23
  615.4000 0.7471240  16249.59
  615.5000 0.7974370  16246.95
  615.6000 0.8405770  16244.31
  615.7000 0.8762880  16241.68
  615.8000 0.9049170  16239.04
  615.9000 0.9272530  16236.40
  616.0000 0.9443220  16233.77
  616.1000 0.9573290  16231.13
  616.2000 0.9673760  16228.50
  616.3000 0.9753900  16225.86
  616.4000 0.9820100  16223.23
  616.5000 0.9875560  16220.60
  616.6000 0.9921120  16217.97
  616.7000 0.9955870  16215.34
  616.8000 0.9978580  16212.71
  616.9000 0.9988690  16210.08
  617.0000 0.9987080  16207.46
  617.1000 0.9976390  16204.83
  617.2000 0.9960690  16202.20
  617.3000 0.9944760  16199.58
  617.4000 0.9933060  16196.95
  617.5000 0.9928820  16194.33
  617.6000 0.9933240  16191.71
  617.7000 0.9945300  16189.09
  617.8000 0.9962060  16186.47
  617.9000 0.9979350  16183.85
  618.0000 0.9992870  16181.23
  618.1000 0.9999250  16178.61
  618.2000 0.9996840  16175.99
  618.3000 0.9986200  16173.38
  618.4000 0.9969900  16170.76
  618.5000 0.9951940  16168.15
  618.6000 0.9936690  16165.54
  618.7000 0.9927890  16162.92
  618.8000 0.9927660  16160.31
  618.9000 0.9936020  16157.70
  619.0000 0.9950840  16155.09
  619.1000 0.9968430  16152.48
  619.2000 0.9984360  16149.87
  619.3000 0.9994670  16147.26
  619.4000 0.9996740  16144.66
  619.5000 0.9990000  16142.05
  619.6000 0.9976070  16139.44
  619.7000 0.9958340  16136.84
  619.8000 0.9941150  16134.24
  619.9000 0.9928690  16131.63
  620.0000 0.9924010  16129.03
  620.1000 0.9928200  16126.43
  620.2000 0.9940200  16123.83
  620.3000 0.9956970  16121.23
  620.4000 0.9974340  16118.63
  620.5000 0.9987940  16116.04
  620.6000 0.9994370  16113.44
  620.7000 0.9991980  16110.84
  620.8000 0.9981300  16108.25
  620.9000 0.9964920  16105.65
  621.0000 0.9946850  16103.06
  621.1000 0.9931490  16100.47
  621.2000 0.9922610  16097.88
  621.3000 0.9922340  16095.28
  621.4000 0.9930710  16092.69
  621.5000 0.9945600  16090.10
  621.6000 0.9963290  16087.52
  621.7000 0.9979330  16084.93
  621.8000 0.9989720  16082.34
  621.9000 0.9991830  16079.76
  622.0000 0.9985080  16077.17
  622.1000 0.9971080  16074.59
  622.2000 0.9953230  16072.00
  622.3000 0.9935860  16069.42
  622.4000 0.9923190  16066.84
  622.5000 0.9918230  16064.26
  622.6000 0.9922050  16061.68
  622.7000 0.9933450  16059.10
  622.8000 0.9949220  16056.52
  622.9000 0.9964860  16053.94
  623.0000 0.9975530  16051.36
  623.1000 0.9977130  16048.79
  623.2000 0.9966980  16046.21
  623.3000 0.9944230  16043.64
  623.4000 0.9909440  16041.07
  623.5000 0.9864040  16038.49
  623.6000 0.9808930  16035.92
  623.7000 0.9743540  16033.35
  623.8000 0.9664650  16030.78
  623.9000 0.9565900  16028.21
  624.0000 0.9438240  16025.64
  624.1000 0.9270240  16023.07
  624.2000 0.9050100  16020.51
  624.3000 0.8767010  16017.94
  624.4000 0.8412740  16015.37
  624.5000 0.7984300  16012.81
  624.6000 0.7483100  16010.25
  624.7000 0.6917150  16007.68
  624.8000 0.6299110  16005.12
  624.9000 0.5645250  16002.56
  625.0000 0.4975850  16000.00
  625.1000 0.4310070  15997.44
  625.2000 0.3667530  15994.88
  625.3000 0.3064350  15992.32
  625.4000 0.2512850  15989.77
  625.5000 0.2022450  15987.21
  625.6000 0.1596850  15984.65
  625.7000 0.1237020  15982.10
  625.8000 0.0940011  15979.55
  625.9000 0.0700460  15976.99
  626.0000 0.0512045  15974.44
  626.1000 0.0367029  15971.89
  626.2000 0.0258059  15969.34
  626.3000 0.0177956  15966.79
  626.4000 0.0120314  15964.24
  626.5000 0.0079803  15961.69
  626.6000 0.0051899  15959.14
  626.7000 0.0033111  15956.60
  626.8000 0.0020721  15954.05
  626.9000 0.0012713  15951.51
  627.0000 0.0007654  15948.96
  627.1000 0.0004519  15946.42
  627.2000 0.0002327  15943.88
  627.3000 0.0001105  15941.34
  627.4000 0.0000233  15938.80
  627.5000 0.0000000  15936.25
b7
  657.4000 0.0000000  15211.44
  657.5000 0.0000110  15209.13
  657.6000 0.0000533  15206.81
  657.7000 0.0001300  15204.50
  657.8000 0.0002309  15202.19
  657.9000 0.0004025  15199.88
  658.0000 0.0006877  15197.57
  658.1000 0.0011525  15195.26
  658.2000 0.0018931  15192.95
  658.3000 0.0030491  15190.64
  658.4000 0.0048168  15188.34
  658.5000 0.0074583  15186.03
  658.6000 0.0113250  15183.72
  658.7000 0.0168543  15181.42
  658.8000 0.0245930  15179.11
  658.9000 0.0351902  15176.81
  659.0000 0.0493559  15174.51
  659.1000 0.0678800  15172.20
  659.2000 0.0915103  15169.90
  659.3000 0.1209670  15167.60
  659.4000 0.1568250  15165.30
  659.5000 0.1993520  15163.00
  659.6000 0.2485760  15160.70
  659.7000 0.3040160  15158.41
  659.8000 0.3648570  15156.11
  659.9000 0.4298360  15153.81
  660.0000 0.4971970  15151.52
  660.1000 0.5650570  15149.22
  660.2000 0.6312620  15146.93
  660.3000 0.6938610  15144.63
  660.4000 0.7511240  15142.34
  660.5000 0.8016530  15140.05
  660.6000 0.8447190  15137.75
  660.7000 0.8800880  15135.46
  660.8000 0.9081790  15133.17
  660.9000 0.9298460  15130.88
  661.0000 0.9462210  15128.59
  661.1000 0.9585880  15126.30
  661.2000 0.9681190  15124.02
  661.3000 0.9757830  15121.73
  661.4000 0.9822160  15119.44
  661.5000 0.9877140  15117.16
  661.6000 0.9923030  15114.87
  661.7000 0.9958310  15112.59
  661.8000 0.9981180  15110.31
  661.9000 0.9990690  15108.02
  662.0000 0.9987600  15105.74
  662.1000 0.9974700  15103.46
  662.2000 0.9956490  15101.18
  662.3000 0.9938230  15098.90
  662.4000 0.9924900  15096.62
  662.5000 0.9920080  15094.34
  662.6000 0.9925070  15092.06
  662.7000 0.9938690  15089.78
  662.8000 0.9957600  15087.51
  662.9000 0.9977110  15085.23
  663.0000 0.9992330  15082.96
  663.1000 0.9999480  15080.68
  663.2000 0.9996720  15078.41
  663.3000 0.9984680  15076.13
  663.4000 0.9966270  15073.86
  663.5000 0.9946000  15071.59
  663.6000 0.9928790  15069.32
  663.7000 0.9918870  15067.05
  663.8000 0.9918620  15064.78
  663.9000 0.9928070  15062.51
  664.0000 0.9944800  15060.24
  664.1000 0.9964660  15057.97
  664.2000 0.9982660  15055.71
  664.3000 0.9994310  15053.44
  664.4000 0.9996660  15051.17
  664.5000 0.9989080  15048.91
  664.6000 0.9973360  15046.64
  664.7000 0.9953360  15044.38
  664.8000 0.9933940  15042.12
  664.9000 0.9919840  15039.86
  665.0000 0.9914500  15037.59
  665.1000 0.9919200  15035.33
  665.2000 0.9932700  15033.07
  665.3000 0.9951630  15030.81
  665.4000 0.9971260  15028.55
  665.5000 0.9986680  15026.30
  665.6000 0.9994010  15024.04
  665.7000 0.9991390  15021.78
  665.8000 0.9979400  15019.53
  665.9000 0.9960940  15017.27
  666.0000 0.9940520  15015.02
  666.1000 0.9923120  15012.76
  666.2000 0.9913000  15010.51
  666.3000 0.9912600  15008.25
  666.4000 0.9921960  15006.00
  666.5000 0.9938730  15003.75
  666.6000 0.9958700  15001.50
  666.7000 0.9976880  14999.25
  666.8000 0.9988730  14997.00
  666.9000 0.9991260  14994.75
  667.0000 0.9983770  14992.50
  667.1000 0.9968040  14990.26
  667.2000 0.9947920  14988.01
  667.3000 0.9928280  14985.76
  667.4000 0.9913880  14983.52
  667.5000 0.9908190  14981.27
  667.6000 0.9912460  14979.03
  667.7000 0.9925390  14976.79
  667.8000 0.9943450  14974.54
  667.9000 0.9961640  14972.30
  668.0000 0.9974570  14970.06
  668.1000 0.9977720  14967.82
  668.2000 0.9968230  14965.58
  668.3000 0.9945320  14963.34
  668.4000 0.9909950  14961.10
  668.5000 0.9864120  14958.86
  668.6000 0.9809390  14956.63
  668.7000 0.9745780  14954.39
  668.8000 0.9670380  14952.15
  668.9000 0.9576870  14949.92
  669.0000 0.9455810  14947.68
  669.1000 0.9295090  14945.45
  669.2000 0.9082130  14943.22
  669.3000 0.8804990  14940.98
  669.4000 0.8454660  14938.75
  669.5000 0.8027460  14936.52
  669.6000 0.7524530  14934.29
  669.7000 0.6954180  14932.06
  669.8000 0.6329170  14929.83
  669.9000 0.5666710  14927.60
  670.0000 0.4987780  14925.37
  670.1000 0.4312520  14923.15
  670.2000 0.3661490  14920.92
  670.3000 0.3051070  14918.69
  670.4000 0.2494200  14916.47
  670.5000 0.2000280  14914.24
  670.6000 0.1573070  14912.02
  670.7000 0.1213280  14909.80
  670.8000 0.0917498  14907.57
  670.9000 0.0680111  14905.35
  671.0000 0.0494328  14903.13
  671.1000 0.0352170  14900.91
  671.2000 0.0246010  14898.69
  671.3000 0.0168461  14896.47
  671.4000 0.0113060  14894.25
  671.5000 0.0074402  14892.03
  671.6000 0.0047989  14889.82
  671.7000 0.0030354  14887.60
  671.8000 0.0018822  14885.38
  671.9000 0.0011439  14883.17
  672.0000 0.0006818  14880.95
  672.1000 0.0003531  14878.74
  672.2000 0.0002035  14876.52
  672.3000 0.0000000  14874.31
b8
  674.9000 0.0000000  14817.01
  675.0000 0.0000103  14814.81
  675.1000 0.0000505  14812.62
  675.2000 0.0001110  14810.43
  675.3000 0.0002203  14808.23
  675.4000 0.0003853  14806.04
  675.5000 0.0006605  14803.85
  675.6000 0.0011104  14801.66
  675.7000 0.0018298  14799.47
  675.8000 0.0029560  14797.28
  675.9000 0.0046832  14795.09
  676.0000 0.0072714  14792.90
  676.1000 0.0110703  14790.71
  676.2000 0.0165171  14788.52
  676.3000 0.0241587  14786.34
  676.4000 0.0346466  14784.15
  676.5000 0.0486967  14781.97
  676.6000 0.0671073  14779.78
  676.7000 0.0906384  14777.60
  676.8000 0.1200220  14775.41
  676.9000 0.1558460  14773.23
  677.0000 0.1983930  14771.05
  677.1000 0.2477030  14768.87
  677.2000 0.3033020  14766.69
  677.3000 0.3643680  14764.51
  677.4000 0.4296290  14762.33
  677.5000 0.4973110  14760.15
  677.6000 0.5655050  14757.97
  677.7000 0.6320270  14755.79
  677.8000 0.6948900  14753.61
  677.9000 0.7523370  14751.44
  678.0000 0.8029560  14749.26
  678.1000 0.8460090  14747.09
  678.2000 0.8812720  14744.91
  678.3000 0.9091790  14742.74
  678.4000 0.9306160  14740.57
  678.5000 0.9467510  14738.39
  678.6000 0.9588960  14736.22
  678.7000 0.9682540  14734.05
  678.8000 0.9758030  14731.88
  678.9000 0.9821840  14729.71
  679.0000 0.9876780  14727.54
  679.1000 0.9922930  14725.37
  679.2000 0.9958520  14723.20
  679.3000 0.9981550  14721.04
  679.4000 0.9990900  14718.87
  679.5000 0.9987290  14716.70
  679.6000 0.9973590  14714.54
  679.7000 0.9954440  14712.37
  679.8000 0.9935310  14710.21
  679.9000 0.9921380  14708.05
  680.0000 0.9916330  14705.88
  680.1000 0.9921550  14703.72
  680.2000 0.9935780  14701.56
  680.3000 0.9955520  14699.40
  680.4000 0.9975880  14697.24
  680.5000 0.9991780  14695.08
  680.6000 0.9999240  14692.92
  680.7000 0.9996360  14690.76
  680.8000 0.9983800  14688.60
  680.9000 0.9964600  14686.44
  681.0000 0.9943450  14684.29
  681.1000 0.9925500  14682.13
  681.2000 0.9915160  14679.98
  681.3000 0.9914910  14677.82
  681.4000 0.9924780  14675.67
  681.5000 0.9942260  14673.51
  681.6000 0.9962990  14671.36
  681.7000 0.9981790  14669.21
  681.8000 0.9993960  14667.06
  681.9000 0.9996430  14664.91
  682.0000 0.9988530  14662.76
  682.1000 0.9972130  14660.61
  682.2000 0.9951250  14658.46
  682.3000 0.9930940  14656.31
  682.4000 0.9916140  14654.16
  682.5000 0.9910410  14652.01
  682.6000 0.9915010  14649.87
  682.7000 0.9928570  14647.72
  682.8000 0.9947420  14645.58
  682.9000 0.9966360  14643.43
  683.0000 0.9979860  14641.29
  683.1000 0.9983260  14639.15
  683.2000 0.9973680  14637.00
  683.3000 0.9950410  14634.86
  683.4000 0.9914570  14632.72
  683.5000 0.9868320  14630.58
  683.6000 0.9813440  14628.44
  683.7000 0.9750060  14626.30
  683.8000 0.9675340  14624.16
  683.9000 0.9582880  14622.02
  684.0000 0.9463080  14619.88
  684.1000 0.9303580  14617.75
  684.2000 0.9091510  14615.61
  684.3000 0.8814680  14613.47
  684.4000 0.8463900  14611.34
  684.5000 0.8035390  14609.20
  684.6000 0.7530310  14607.07
  684.7000 0.6957120  14604.94
  684.8000 0.6328850  14602.80
  684.9000 0.5662990  14600.67
  685.0000 0.4980800  14598.54
  685.1000 0.4302710  14596.41
  685.2000 0.3649450  14594.28
  685.3000 0.3037570  14592.15
  685.4000 0.2480040  14590.02
  685.5000 0.1986150  14587.89
  685.6000 0.1559590  14585.76
  685.7000 0.1200910  14583.64
  685.8000 0.0906549  14581.51
  685.9000 0.0670748  14579.38
  686.0000 0.0486553  14577.26
  686.1000 0.0345907  14575.13
  686.2000 0.0241100  14573.01
  686.3000 0.0164716  14570.89
  686.4000 0.0110281  14568.76
  686.5000 0.0072389  14566.64
  686.6000 0.0046568  14564.52
  686.7000 0.0029374  14562.40
  686.8000 0.0018162  14560.28
  686.9000 0.0011006  14558.16
  687.0000 0.0006539  14556.04
  687.1000 0.0003809  14553.92
  687.2000 0.0001943  14551.80
  687.3000 0.0000000  14549.69
b9
  701.2000 0.0000000  14261.27
  701.3000 0.0000128  14259.23
  701.4000 0.0000755  14257.20
  701.5000 0.0001516  14255.17
  701.6000 0.0002696  14253.14
  701.7000 0.0004695  14251.10
  701.8000 0.0008018  14249.07
  701.9000 0.0013423  14247.04
  702.0000 0.0022022  14245.01
  702.1000 0.0035427  14242.99
  702.2000 0.0055831  14240.96
  702.3000 0.0086245  14238.93
  702.4000 0.0130589  14236.90
  702.5000 0.0193757  14234.88
  702.6000 0.0281833  14232.85
  702.7000 0.0401615  14230.82
  702.8000 0.0560941  14228.80
  702.9000 0.0767921  14226.77
  703.0000 0.1030220  14224.75
  703.1000 0.1355000  14222.73
  703.2000 0.1746480  14220.71
  703.3000 0.2206990  14218.68
  703.4000 0.2734700  14216.66
  703.5000 0.3322900  14214.64
  703.6000 0.3961400  14212.62
  703.7000 0.4633640  14210.60
  703.8000 0.5321420  14208.58
  703.9000 0.6003560  14206.56
  704.0000 0.6658060  14204.55
  704.1000 0.7265830  14202.53
  704.2000 0.7809580  14200.51
  704.3000 0.8278980  14198.49
  704.4000 0.8669130  14196.48
  704.5000 0.8981260  14194.46
  704.6000 0.9222810  14192.45
  704.7000 0.9404520  14190.44
  704.8000 0.9539980  14188.42
  704.9000 0.9642480  14186.41
  705.0000 0.9723370  14184.40
  705.1000 0.9791010  14182.39
  705.2000 0.9849760  14180.37
  705.3000 0.9900740  14178.36
  705.4000 0.9942490  14176.35
  705.5000 0.9972510  14174.34
  705.6000 0.9988760  14172.34
  705.7000 0.9990780  14170.33
  705.8000 0.9980420  14168.32
  705.9000 0.9961710  14166.31
  706.0000 0.9940200  14164.31
  706.1000 0.9921720  14162.30
  706.2000 0.9911170  14160.29
  706.3000 0.9911300  14158.29
  706.4000 0.9922160  14156.29
  706.5000 0.9941080  14154.28
  706.6000 0.9963400  14152.28
  706.7000 0.9983540  14150.28
  706.8000 0.9996500  14148.27
  706.9000 0.9999030  14146.27
  707.0000 0.9990450  14144.27
  707.1000 0.9972800  14142.27
  707.2000 0.9950410  14140.27
  707.3000 0.9928740  14138.27
  707.4000 0.9913090  14136.27
  707.5000 0.9907280  14134.28
  707.6000 0.9912700  14132.28
  707.7000 0.9927950  14130.28
  707.8000 0.9949220  14128.28
  707.9000 0.9971210  14126.29
  708.0000 0.9988430  14124.29
  708.1000 0.9996570  14122.30
  708.2000 0.9993570  14120.30
  708.3000 0.9980100  14118.31
  708.4000 0.9959430  14116.32
  708.5000 0.9936620  14114.33
  708.6000 0.9917230  14112.33
  708.7000 0.9906030  14110.34
  708.8000 0.9905700  14108.35
  708.9000 0.9916300  14106.36
  709.0000 0.9935140  14104.37
  709.1000 0.9957550  14102.38
  709.2000 0.9977910  14100.39
  709.3000 0.9991150  14098.41
  709.4000 0.9993940  14096.42
  709.5000 0.9985550  14094.43
  709.6000 0.9967950  14092.45
  709.7000 0.9945480  14090.46
  709.8000 0.9923610  14088.48
  709.9000 0.9907680  14086.49
  710.0000 0.9901600  14084.51
  710.1000 0.9906800  14082.52
  710.2000 0.9921960  14080.54
  710.3000 0.9943280  14078.56
  710.4000 0.9965450  14076.58
  710.5000 0.9982930  14074.60
  710.6000 0.9991360  14072.61
  710.7000 0.9988590  14070.63
  710.8000 0.9975250  14068.66
  710.9000 0.9954560  14066.68
  711.0000 0.9931580  14064.70
  711.1000 0.9911880  14062.72
  711.2000 0.9900280  14060.74
  711.3000 0.9899510  14058.77
  711.4000 0.9909600  14056.79
  711.5000 0.9927790  14054.81
  711.6000 0.9949230  14052.84
  711.7000 0.9967970  14050.86
  711.8000 0.9978420  14048.89
  711.9000 0.9976440  14046.92
  712.0000 0.9960190  14044.94
  712.1000 0.9930050  14042.97
  712.2000 0.9888240  14041.00
  712.3000 0.9837320  14039.03
  712.4000 0.9778890  14037.06
  712.5000 0.9712130  14035.09
  712.6000 0.9632580  14033.12
  712.7000 0.9532230  14031.15
  712.8000 0.9399520  14029.18
  712.9000 0.9220970  14027.21
  713.0000 0.8983210  14025.25
  713.1000 0.8674440  14023.28
  713.2000 0.8287890  14021.31
  713.3000 0.7821420  14019.35
  713.4000 0.7279590  14017.38
  713.5000 0.6673700  14015.42
  713.6000 0.6019130  14013.45
  713.7000 0.5337030  14011.49
  713.8000 0.4648230  14009.53
  713.9000 0.3974110  14007.56
  714.0000 0.3334310  14005.60
  714.1000 0.2743630  14003.64
  714.2000 0.2214250  14001.68
  714.3000 0.1751940  13999.72
  714.4000 0.1358710  13997.76
  714.5000 0.1032950  13995.80
  714.6000 0.0769457  13993.84
  714.7000 0.0561871  13991.88
  714.8000 0.0402045  13989.93
  714.9000 0.0281892  13987.97
  715.0000 0.0193715  13986.01
  715.1000 0.0130410  13984.06
  715.2000 0.0086064  13982.10
  715.3000 0.0055656  13980.15
  715.4000 0.0035268  13978.19
  715.5000 0.0021907  13976.24
  715.6000 0.0013330  13974.29
  715.7000 0.0007954  13972.33
  715.8000 0.0004651  13970.38
  715.9000 0.0002379  13968.43
  716.0000 0.0000688  13966.48
  716.1000 0.0000000  13964.53
b10
  747.5000 0.0000000  13377.93
  747.6000 0.0000152  13376.14
  747.7000 0.0000883  13374.35
  747.8000 0.0001773  13372.56
  747.9000 0.0003151  13370.77
  748.0000 0.0005488  13368.98
  748.1000 0.0009366  13367.20
  748.2000 0.0015657  13365.41
  748.3000 0.0025649  13363.62
  748.4000 0.0041176  13361.84
  748.5000 0.0064752  13360.05
  748.6000 0.0099774  13358.27
  748.7000 0.0150577  13356.48
  748.8000 0.0222656  13354.70
  748.9000 0.0322598  13352.92
  749.0000 0.0457841  13351.13
  749.1000 0.0636638  13349.35
  749.2000 0.0867130  13347.57
  749.3000 0.1157240  13345.79
  749.4000 0.1513430  13344.01
  749.5000 0.1939290  13342.23
  749.6000 0.2435530  13340.45
  749.7000 0.2997810  13338.67
  749.8000 0.3617910  13336.89
  749.9000 0.4282570  13335.11
  750.0000 0.4973410  13333.33
  750.1000 0.5669930  13331.56
  750.2000 0.6349020  13329.78
  750.3000 0.6989470  13328.00
  750.4000 0.7572380  13326.23
  750.5000 0.8082850  13324.45
  750.6000 0.8513060  13322.68
  750.7000 0.8861120  13320.90
  750.8000 0.9132300  13319.13
  750.9000 0.9336730  13317.35
  751.0000 0.9487610  13315.58
  751.1000 0.9599530  13313.81
  751.2000 0.9685660  13312.03
  751.3000 0.9756430  13310.26
  751.4000 0.9818260  13308.49
  751.5000 0.9873450  13306.72
  751.6000 0.9921150  13304.95
  751.7000 0.9958490  13303.18
  751.8000 0.9982450  13301.41
  751.9000 0.9991270  13299.64
  752.0000 0.9985460  13297.87
  752.1000 0.9968200  13296.10
  752.2000 0.9944850  13294.34
  752.3000 0.9921800  13292.57
  752.4000 0.9905110  13290.80
  752.5000 0.9899140  13289.04
  752.6000 0.9905440  13287.27
  752.7000 0.9922510  13285.51
  752.8000 0.9946120  13283.74
  752.9000 0.9970450  13281.98
  753.0000 0.9989440  13280.21
  753.1000 0.9998360  13278.45
  753.2000 0.9994960  13276.69
  753.3000 0.9980040  13274.92
  753.4000 0.9957230  13273.16
  753.5000 0.9932110  13271.40
  753.6000 0.9910850  13269.64
  753.7000 0.9898650  13267.88
  753.8000 0.9898480  13266.12
  753.9000 0.9910340  13264.36
  754.0000 0.9931270  13262.60
  754.1000 0.9956050  13260.84
  754.2000 0.9978510  13259.08
  754.3000 0.9993080  13257.32
  754.4000 0.9996090  13255.57
  754.5000 0.9986760  13253.81
  754.6000 0.9967330  13252.05
  754.7000 0.9942560  13250.30
  754.8000 0.9918500  13248.54
  754.9000 0.9901000  13246.79
  755.0000 0.9894330  13245.03
  755.1000 0.9900000  13243.28
  755.2000 0.9916440  13241.53
  755.3000 0.9939300  13239.77
  755.4000 0.9962500  13238.02
  755.5000 0.9979570  13236.27
  755.6000 0.9985160  13234.52
  755.7000 0.9976100  13232.76
  755.8000 0.9951870  13231.01
  755.9000 0.9914270  13229.26
  756.0000 0.9866460  13227.51
  756.1000 0.9811310  13225.76
  756.2000 0.9749870  13224.01
  756.3000 0.9679770  13222.27
  756.4000 0.9594600  13220.52
  756.5000 0.9484060  13218.77
  756.6000 0.9334720  13217.02
  756.7000 0.9132190  13215.28
  756.8000 0.8862770  13213.53
  756.9000 0.8516090  13211.78
  757.0000 0.8087370  13210.04
  757.1000 0.7577720  13208.29
  757.2000 0.6995820  13206.55
  757.3000 0.6355550  13204.81
  757.4000 0.5675770  13203.06
  757.5000 0.4978960  13201.32
  757.6000 0.4287170  13199.58
  757.7000 0.3622120  13197.84
  757.8000 0.3001120  13196.09
  757.9000 0.2437600  13194.35
  758.0000 0.1940790  13192.61
  758.1000 0.1514200  13190.87
  758.2000 0.1157800  13189.13
  758.3000 0.0867339  13187.39
  758.4000 0.0636467  13185.65
  758.5000 0.0457612  13183.92
  758.6000 0.0322283  13182.18
  758.7000 0.0222408  13180.44
  758.8000 0.0150350  13178.70
  758.9000 0.0099548  13176.97
  759.0000 0.0064582  13175.23
  759.1000 0.0041040  13173.49
  759.2000 0.0025559  13171.76
  759.3000 0.0015593  13170.03
  759.4000 0.0009319  13168.29
  759.5000 0.0005457  13166.56
  759.6000 0.0002793  13164.82
  759.7000 0.0001267  13163.09
  759.8000 0.0000000  13161.36
b11
  757.5000 0.0000000  13201.32
  757.6000 0.0000251  13199.58
  757.7000 0.0000844  13197.84
  757.8000 0.0001700  13196.09
  757.9000 0.0003030  13194.35
  758.0000 0.0005290  13192.61
  758.1000 0.0009053  13190.87
  758.2000 0.0015172  13189.13
  758.3000 0.0024916  13187.39
  758.4000 0.0040093  13185.65
  758.5000 0.0063194  13183.92
  758.6000 0.0097592  13182.18
  758.7000 0.0147595  13180.44
  758.8000 0.0218703  13178.70
  758.9000 0.0317484  13176.97
  759.0000 0.0451435  13175.23
  759.1000 0.0628876  13173.49
  759.2000 0.0858001  13171.76
  759.3000 0.1146940  13170.03
  759.4000 0.1502190  13168.29
  759.5000 0.1927630  13166.56
  759.6000 0.2424110  13164.82
  759.7000 0.2987340  13163.09
  759.8000 0.3609330  13161.36
  759.9000 0.4276540  13159.63
  760.0000 0.4970790  13157.89
  760.1000 0.5671240  13156.16
  760.2000 0.6354490  13154.43
  760.3000 0.6999110  13152.70
  760.4000 0.7585630  13150.97
  760.5000 0.8099180  13149.24
  760.6000 0.8531550  13147.52
  760.7000 0.8880820  13145.79
  760.8000 0.9152340  13144.06
  760.9000 0.9356320  13142.33
  761.0000 0.9506330  13140.60
  761.1000 0.9617180  13138.88
  761.2000 0.9702320  13137.15
  761.3000 0.9772370  13135.43
  761.4000 0.9833730  13133.70
  761.5000 0.9888640  13131.98
  761.6000 0.9935910  13130.25
  761.7000 0.9972200  13128.53
  761.8000 0.9993850  13126.80
  761.9000 0.9998210  13125.08
  762.0000 0.9984720  13123.36
  762.1000 0.9955040  13121.64
  762.2000 0.9912580  13119.92
  762.3000 0.9861020  13118.19
  762.4000 0.9802830  13116.47
  762.5000 0.9737690  13114.75
  762.6000 0.9661280  13113.03
  762.7000 0.9565150  13111.32
  762.8000 0.9436960  13109.60
  762.9000 0.9262300  13107.88
  763.0000 0.9026680  13106.16
  763.1000 0.8717640  13104.44
  763.2000 0.8327680  13102.73
  763.3000 0.7854560  13101.01
  763.4000 0.7303230  13099.29
  763.5000 0.6685560  13097.58
  763.6000 0.6018480  13095.86
  763.7000 0.5323730  13094.15
  763.8000 0.4623340  13092.43
  763.9000 0.3939610  13090.72
  764.0000 0.3292590  13089.01
  764.1000 0.2697860  13087.29
  764.2000 0.2167050  13085.58
  764.3000 0.1705720  13083.87
  764.4000 0.1315440  13082.16
  764.5000 0.0993931  13080.44
  764.6000 0.0735655  13078.73
  764.7000 0.0533498  13077.02
  764.8000 0.0378947  13075.31
  764.9000 0.0263643  13073.60
  765.0000 0.0179683  13071.90
  765.1000 0.0119943  13070.19
  765.2000 0.0078451  13068.48
  765.3000 0.0050257  13066.77
  765.4000 0.0031536  13065.06
  765.5000 0.0019387  13063.36
  765.6000 0.0011674  13061.65
  765.7000 0.0006889  13059.95
  765.8000 0.0003982  13058.24
  765.9000 0.0001546  13056.53
  766.0000 0.0000290  13054.83
  766.1000 0.0000000  13053.13
b12
  768.8000 0.0000000  13007.28
  768.9000 0.0000476  13005.59
  769.0000 0.0001121  13003.90
  769.1000 0.0002243  13002.21
  769.2000 0.0003964  13000.52
  769.3000 0.0006862  12998.83
  769.4000 0.0011640  12997.14
  769.5000 0.0019341  12995.45
  769.6000 0.0031488  12993.76
  769.7000 0.0050205  12992.07
  769.8000 0.0078414  12990.39
  769.9000 0.0119981  12988.70
  770.0000 0.0179797  12987.01
  770.1000 0.0263960  12985.33
  770.2000 0.0379503  12983.64
  770.3000 0.0534451  12981.96
  770.4000 0.0737314  12980.27
  770.5000 0.0996267  12978.59
  770.6000 0.1318880  12976.90
  770.7000 0.1710240  12975.22
  770.8000 0.2172920  12973.53
  770.9000 0.2705530  12971.85
  771.0000 0.3301490  12970.17
  771.1000 0.3950080  12968.49
  771.2000 0.4634640  12966.80
  771.3000 0.5335620  12965.12
  771.4000 0.6030780  12963.44
  771.5000 0.6696840  12961.76
  771.6000 0.7313260  12960.08
  771.7000 0.7862210  12958.40
  771.8000 0.8332550  12956.72
  771.9000 0.8719540  12955.05
  772.0000 0.9025040  12953.37
  772.1000 0.9257450  12951.69
  772.2000 0.9429090  12950.01
  772.3000 0.9554830  12948.34
  772.4000 0.9649210  12946.66
  772.5000 0.9724440  12944.98
  772.6000 0.9789060  12943.31
  772.7000 0.9847210  12941.63
  772.8000 0.9899230  12939.96
  772.9000 0.9942680  12938.28
  773.0000 0.9974030  12936.61
  773.1000 0.9990440  12934.94
  773.2000 0.9991080  12933.26
  773.3000 0.9977890  12931.59
  773.4000 0.9955420  12929.92
  773.5000 0.9930020  12928.25
  773.6000 0.9908430  12926.58
  773.7000 0.9896240  12924.91
  773.8000 0.9896610  12923.24
  773.9000 0.9909500  12921.57
  774.0000 0.9931760  12919.90
  774.1000 0.9957880  12918.23
  774.2000 0.9981370  12916.56
  774.3000 0.9996430  12914.89
  774.4000 0.9999270  12913.22
  774.5000 0.9989170  12911.56
  774.6000 0.9968560  12909.89
  774.7000 0.9942510  12908.22
  774.8000 0.9917390  12906.56
  774.9000 0.9899360  12904.89
  775.0000 0.9892860  12903.23
  775.1000 0.9899440  12901.56
  775.2000 0.9917430  12899.90
  775.3000 0.9942380  12898.23
  775.4000 0.9968070  12896.57
  775.5000 0.9988120  12894.91
  775.6000 0.9997540  12893.24
  775.7000 0.9993960  12891.58
  775.8000 0.9978220  12889.92
  775.9000 0.9954150  12888.26
  776.0000 0.9927670  12886.60
  776.1000 0.9905260  12884.94
  776.2000 0.9892440  12883.28
  776.3000 0.9892310  12881.62
  776.4000 0.9904890  12879.96
  776.5000 0.9927020  12878.30
  776.6000 0.9953220  12876.64
  776.7000 0.9976950  12874.98
  776.8000 0.9992340  12873.33
  776.9000 0.9995540  12871.67
  777.0000 0.9985700  12870.01
  777.1000 0.9965220  12868.36
  777.2000 0.9939110  12866.70
  777.3000 0.9913780  12865.05
  777.4000 0.9895430  12863.39
  777.5000 0.9888570  12861.74
  777.6000 0.9894860  12860.08
  777.7000 0.9912700  12858.43
  777.8000 0.9937650  12856.78
  777.9000 0.9963530  12855.12
  778.0000 0.9983880  12853.47
  778.1000 0.9993660  12851.82
  778.2000 0.9990390  12850.17
  778.3000 0.9974860  12848.52
  778.4000 0.9950830  12846.87
  778.5000 0.9924220  12845.22
  778.6000 0.9901540  12843.57
  778.7000 0.9888370  12841.92
  778.8000 0.9887910  12840.27
  778.9000 0.9900250  12838.62
  779.0000 0.9922290  12836.97
  779.1000 0.9948590  12835.32
  779.2000 0.9972570  12833.68
  779.3000 0.9988300  12832.03
  779.4000 0.9991840  12830.38
  779.5000 0.9982290  12828.74
  779.6000 0.9961930  12827.09
  779.7000 0.9935780  12825.45
  779.8000 0.9910240  12823.80
  779.9000 0.9891580  12822.16
  780.0000 0.9884370  12820.51
  780.1000 0.9890360  12818.87
  780.2000 0.9908030  12817.23
  780.3000 0.9932980  12815.58
  780.4000 0.9959030  12813.94
  780.5000 0.9979680  12812.30
  780.6000 0.9989820  12810.66
  780.7000 0.9986880  12809.02
  780.8000 0.9971560  12807.38
  780.9000 0.9947580  12805.74
  781.0000 0.9920840  12804.10
  781.1000 0.9897890  12802.46
  781.2000 0.9884370  12800.82
  781.3000 0.9883580  12799.18
  781.4000 0.9895670  12797.54
  781.5000 0.9917630  12795.91
  781.6000 0.9944010  12794.27
  781.7000 0.9968240  12792.63
  781.8000 0.9984310  12791.00
  781.9000 0.9988200  12789.36
  782.0000 0.9978920  12787.72
  782.1000 0.9958710  12786.09
  782.2000 0.9932520  12784.45
  782.3000 0.9906780  12782.82
  782.4000 0.9887800  12781.19
  782.5000 0.9880240  12779.55
  782.6000 0.9885930  12777.92
  782.7000 0.9903420  12776.29
  782.8000 0.9928370  12774.66
  782.9000 0.9954590  12773.02
  783.0000 0.9975540  12771.39
  783.1000 0.9986030  12769.76
  783.2000 0.9983410  12768.13
  783.3000 0.9968300  12766.50
  783.4000 0.9944370  12764.87
  783.5000 0.9917490  12763.24
  783.6000 0.9894240  12761.61
  783.7000 0.9880300  12759.98
  783.8000 0.9879010  12758.36
  783.9000 0.9890590  12756.73
  784.0000 0.9911960  12755.10
  784.1000 0.9937540  12753.48
  784.2000 0.9960480  12751.85
  784.3000 0.9974300  12750.22
  784.4000 0.9974270  12748.60
  784.5000 0.9958330  12746.97
  784.6000 0.9927230  12745.35
  784.7000 0.9883920  12743.72
  784.8000 0.9832050  12742.10
  784.9000 0.9774320  12740.48
  785.0000 0.9710760  12738.85
  785.1000 0.9637380  12737.23
  785.2000 0.9545930  12735.61
  785.3000 0.9424170  12733.99
  785.4000 0.9257390  12732.37
  785.5000 0.9030700  12730.74
  785.6000 0.8730930  12729.12
  785.7000 0.8349790  12727.50
  785.8000 0.7884570  12725.88
  785.9000 0.7339510  12724.27
  786.0000 0.6726220  12722.65
  786.1000 0.6061240  12721.03
  786.2000 0.5366340  12719.41
  786.3000 0.4664130  12717.79
  786.4000 0.3977090  12716.17
  786.5000 0.3325870  12714.56
  786.6000 0.2726260  12712.94
  786.7000 0.2190390  12711.33
  786.8000 0.1724340  12709.71
  786.9000 0.1329800  12708.10
  787.0000 0.1004690  12706.48
  787.1000 0.0743399  12704.87
  787.2000 0.0538853  12703.25
  787.3000 0.0382539  12701.64
  787.4000 0.0265957  12700.03
  787.5000 0.0181120  12698.41
  787.6000 0.0120780  12696.80
  787.7000 0.0078905  12695.19
  787.8000 0.0050485  12693.58
  787.9000 0.0031636  12691.97
  788.0000 0.0019421  12690.36
  788.1000 0.0011675  12688.75
  788.2000 0.0006877  12687.14
  788.3000 0.0003968  12685.53
  788.4000 0.0001600  12683.92
  788.5000 0.0000606  12682.31
  788.6000 0.0000000  12680.70
b13
  852.6000 0.0000000  11728.83
  852.7000 0.0000582  11727.45
  852.8000 0.0001283  11726.08
  852.9000 0.0002572  11724.70
  853.0000 0.0004547  11723.33
  853.1000 0.0007874  11721.96
  853.2000 0.0013348  11720.58
  853.3000 0.0022165  11719.21
  853.4000 0.0036056  11717.83
  853.5000 0.0057420  11716.46
  853.6000 0.0089567  11715.09
  853.7000 0.0136752  11713.72
  853.8000 0.0204463  11712.34
  853.9000 0.0299397  11710.97
  854.0000 0.0429165  11709.60
  854.1000 0.0602442  11708.23
  854.2000 0.0827805  11706.86
  854.3000 0.1113820  11705.49
  854.4000 0.1467740  11704.12
  854.5000 0.1893760  11702.75
  854.6000 0.2393370  11701.38
  854.7000 0.2962400  11700.01
  854.8000 0.3592640  11698.64
  854.9000 0.4270560  11697.27
  855.0000 0.4976670  11695.91
  855.1000 0.5689400  11694.54
  855.2000 0.6383860  11693.17
  855.3000 0.7037180  11691.80
  855.4000 0.7629210  11690.44
  855.5000 0.8143900  11689.07
  855.6000 0.8573190  11687.70
  855.7000 0.8915430  11686.34
  855.8000 0.9176940  11684.97
  855.9000 0.9369480  11683.61
  856.0000 0.9508030  11682.24
  856.1000 0.9608920  11680.88
  856.2000 0.9686660  11679.51
  856.3000 0.9752380  11678.15
  856.4000 0.9812520  11676.79
  856.5000 0.9868680  11675.42
  856.6000 0.9918820  11674.06
  856.7000 0.9958720  11672.70
  856.8000 0.9984140  11671.34
  856.9000 0.9992490  11669.97
  857.0000 0.9984110  11668.61
  857.1000 0.9962570  11667.25
  857.2000 0.9934150  11665.89
  857.3000 0.9906410  11664.53
  857.4000 0.9886510  11663.17
  857.5000 0.9879560  11661.81
  857.6000 0.9887380  11660.45
  857.7000 0.9908060  11659.09
  857.8000 0.9936510  11657.73
  857.9000 0.9965710  11656.37
  858.0000 0.9988420  11655.01
  858.1000 0.9999020  11653.65
  858.2000 0.9994850  11652.30
  858.3000 0.9976940  11650.94
  858.4000 0.9949660  11649.58
  858.5000 0.9919750  11648.22
  858.6000 0.9894550  11646.87
  858.7000 0.9880280  11645.51
  858.8000 0.9880440  11644.15
  858.9000 0.9894970  11642.80
  859.0000 0.9920250  11641.44
  859.1000 0.9950040  11640.09
  859.2000 0.9976920  11638.73
  859.3000 0.9994250  11637.38
  859.4000 0.9997730  11636.03
  859.5000 0.9986450  11634.67
  859.6000 0.9963180  11633.32
  859.7000 0.9933660  11631.96
  859.8000 0.9905140  11630.61
  859.9000 0.9884630  11629.26
  860.0000 0.9877200  11627.91
  860.1000 0.9884660  11626.56
  860.2000 0.9905130  11625.20
  860.3000 0.9933540  11623.85
  860.4000 0.9962870  11622.50
  860.5000 0.9985820  11621.15
  860.6000 0.9996720  11619.80
  860.7000 0.9992840  11618.45
  860.8000 0.9975120  11617.10
  860.9000 0.9947890  11615.75
  861.0000 0.9917880  11614.40
  861.1000 0.9892450  11613.05
  861.2000 0.9877890  11611.70
  861.3000 0.9877760  11610.36
  861.4000 0.9892070  11609.01
  861.5000 0.9917270  11607.66
  861.6000 0.9947120  11606.31
  861.7000 0.9974200  11604.97
  861.8000 0.9991810  11603.62
  861.9000 0.9995590  11602.27
  862.0000 0.9984560  11600.93
  862.1000 0.9961410  11599.58
  862.2000 0.9931870  11598.24
  862.3000 0.9903180  11596.89
  862.4000 0.9882410  11595.55
  862.5000 0.9874680  11594.20
  862.6000 0.9881870  11592.86
  862.7000 0.9902190  11591.52
  862.8000 0.9930580  11590.17
  862.9000 0.9960040  11588.83
  863.0000 0.9983250  11587.49
  863.1000 0.9994440  11586.14
  863.2000 0.9990840  11584.80
  863.3000 0.9973310  11583.46
  863.4000 0.9946130  11582.12
  863.5000 0.9916030  11580.78
  863.6000 0.9890390  11579.43
  863.7000 0.9875540  11578.09
  863.8000 0.9875120  11576.75
  863.9000 0.9889210  11575.41
  864.0000 0.9914320  11574.07
  864.1000 0.9944220  11572.73
  864.2000 0.9971500  11571.40
  864.3000 0.9989390  11570.06
  864.4000 0.9993460  11568.72
  864.5000 0.9982680  11567.38
  864.6000 0.9959660  11566.04
  864.7000 0.9930100  11564.70
  864.8000 0.9901250  11563.37
  864.9000 0.9880220  11562.03
  865.0000 0.9872190  11560.69
  865.1000 0.9879130  11559.36
  865.2000 0.9899280  11558.02
  865.3000 0.9927660  11556.69
  865.4000 0.9957250  11555.35
  865.5000 0.9980690  11554.02
  865.6000 0.9992180  11552.68
  865.7000 0.9988860  11551.35
  865.8000 0.9971510  11550.01
  865.9000 0.9944400  11548.68
  866.0000 0.9914200  11547.34
  866.1000 0.9888350  11546.01
  866.2000 0.9873210  11544.68
  866.3000 0.9872510  11543.35
  866.4000 0.9886390  11542.01
  866.5000 0.9911400  11540.68
  866.6000 0.9941360  11539.35
  866.7000 0.9968820  11538.02
  866.8000 0.9986990  11536.69
  866.9000 0.9991360  11535.36
  867.0000 0.9980810  11534.03
  867.1000 0.9957920  11532.70
  867.2000 0.9928340  11531.37
  867.3000 0.9899350  11530.04
  867.4000 0.9878060  11528.71
  867.5000 0.9869740  11527.38
  867.6000 0.9876410  11526.05
  867.7000 0.9896410  11524.72
  867.8000 0.9924770  11523.39
  867.9000 0.9954480  11522.06
  868.0000 0.9978150  11520.74
  868.1000 0.9989940  11519.41
  868.2000 0.9986890  11518.08
  868.3000 0.9969740  11516.76
  868.4000 0.9942680  11515.43
  868.5000 0.9912400  11514.10
  868.6000 0.9886340  11512.78
  868.7000 0.9870920  11511.45
  868.8000 0.9869930  11510.13
  868.9000 0.9883600  11508.80
  869.0000 0.9908520  11507.48
  869.1000 0.9938530  11506.16
  869.2000 0.9966170  11504.83
  869.3000 0.9984610  11503.51
  869.4000 0.9989260  11502.19
  869.5000 0.9978960  11500.86
  869.6000 0.9956200  11499.54
  869.7000 0.9926610  11498.22
  869.8000 0.9897460  11496.90
  869.9000 0.9875920  11495.57
  870.0000 0.9867310  11494.25
  870.1000 0.9873730  11492.93
  870.2000 0.9893570  11491.61
  870.3000 0.9921900  11490.29
  870.4000 0.9951730  11488.97
  870.5000 0.9975640  11487.65
  870.6000 0.9987710  11486.33
  870.7000 0.9984930  11485.01
  870.8000 0.9967970  11483.69
  870.9000 0.9940970  11482.37
  871.0000 0.9910610  11481.06
  871.1000 0.9884340  11479.74
  871.2000 0.9868660  11478.42
  871.3000 0.9867390  11477.10
  871.4000 0.9880840  11475.79
  871.5000 0.9905660  11474.47
  871.6000 0.9935720  11473.15
  871.7000 0.9963540  11471.84
  871.8000 0.9982240  11470.52
  871.9000 0.9987180  11469.21
  872.0000 0.9977110  11467.89
  872.1000 0.9954470  11466.57
  872.2000 0.9924860  11465.26
  872.3000 0.9895550  11463.95
  872.4000 0.9873720  11462.63
  872.5000 0.9864730  11461.32
  872.6000 0.9870730  11460.00
  872.7000 0.9890090  11458.69
  872.8000 0.9917830  11457.38
  872.9000 0.9946760  11456.07
  873.0000 0.9969140  11454.75
  873.1000 0.9978520  11453.44
  873.2000 0.9971090  11452.13
  873.3000 0.9946350  11450.82
  873.4000 0.9906790  11449.51
  873.5000 0.9856790  11448.20
  873.6000 0.9800720  11446.89
  873.7000 0.9741050  11445.58
  873.8000 0.9676400  11444.27
  873.9000 0.9600640  11442.96
  874.0000 0.9503010  11441.65
  874.1000 0.9368790  11440.34
  874.2000 0.9181850  11439.03
  874.3000 0.8926520  11437.72
  874.4000 0.8590430  11436.41
  874.5000 0.8167490  11435.11
  874.6000 0.7657870  11433.80
  874.7000 0.7070440  11432.49
  874.8000 0.6419800  11431.18
  874.9000 0.5725900  11429.88
  875.0000 0.5013070  11428.57
  875.1000 0.4304770  11427.27
  875.2000 0.3624460  11425.96
  875.3000 0.2990600  11424.65
  875.4000 0.2417150  11423.35
  875.5000 0.1913770  11422.04
  875.6000 0.1483680  11420.74
  875.7000 0.1126530  11419.44
  875.8000 0.0837495  11418.13
  875.9000 0.0609457  11416.83
  876.0000 0.0434290  11415.53
  876.1000 0.0302922  11414.22
  876.2000 0.0206923  11412.92
  876.3000 0.0138386  11411.62
  876.4000 0.0090587  11410.31
  876.5000 0.0058074  11409.01
  876.6000 0.0036445  11407.71
  876.7000 0.0022404  11406.41
  876.8000 0.0013486  11405.11
  876.9000 0.0007947  11403.81
  877.0000 0.0004588  11402.51
  877.1000 0.0002593  11401.21
  877.2000 0.0000799  11399.91
  877.3000 0.0000000  11398.61
b14
  877.6000 0.0000000  11394.71
  877.7000 0.0000549  11393.41
  877.8000 0.0001202  11392.12
  877.9000 0.0002429  11390.82
  878.0000 0.0004309  11389.52
  878.1000 0.0007490  11388.22
  878.2000 0.0012742  11386.93
  878.3000 0.0021234  11385.63
  878.4000 0.0034654  11384.34
  878.5000 0.0055369  11383.04
  878.6000 0.0086633  11381.74
  878.7000 0.0132668  11380.45
  878.8000 0.0198937  11379.15
  878.9000 0.0292094  11377.86
  879.0000 0.0419806  11376.56
  879.1000 0.0590753  11375.27
  879.2000 0.0813644  11373.98
  879.3000 0.1097220  11372.68
  879.4000 0.1448840  11371.39
  879.5000 0.1873020  11370.10
  879.6000 0.2371330  11368.80
  879.7000 0.2939900  11367.51
  879.8000 0.3570710  11366.22
  879.9000 0.4250080  11364.93
  880.0000 0.4958660  11363.64
  880.1000 0.5674520  11362.35
  880.2000 0.6372550  11361.05
  880.3000 0.7029650  11359.76
  880.4000 0.7625050  11358.47
  880.5000 0.8142570  11357.18
  880.6000 0.8573770  11355.89
  880.7000 0.8916970  11354.60
  880.8000 0.9178570  11353.32
  880.9000 0.9370440  11352.03
  881.0000 0.9507910  11350.74
  881.1000 0.9607610  11349.45
  881.2000 0.9684370  11348.16
  881.3000 0.9749570  11346.87
  881.4000 0.9809690  11345.59
  881.5000 0.9866300  11344.30
  881.6000 0.9917210  11343.01
  881.7000 0.9957940  11341.73
  881.8000 0.9984020  11340.44
  881.9000 0.9992660  11339.15
  882.0000 0.9984090  11337.87
  882.1000 0.9961920  11336.58
  882.2000 0.9932580  11335.30
  882.3000 0.9903840  11334.01
  882.4000 0.9883110  11332.73
  882.5000 0.9875710  11331.44
  882.6000 0.9883560  11330.16
  882.7000 0.9904750  11328.88
  882.8000 0.9934060  11327.59
  882.9000 0.9964260  11326.31
  883.0000 0.9987850  11325.03
  883.1000 0.9999010  11323.75
  883.2000 0.9994940  11322.46
  883.3000 0.9976640  11321.18
  883.4000 0.9948580  11319.90
  883.5000 0.9917690  11318.62
  883.6000 0.9891580  11317.34
  883.7000 0.9876680  11316.06
  883.8000 0.9876650  11314.78
  883.9000 0.9891470  11313.50
  884.0000 0.9917470  11312.22
  884.1000 0.9948210  11310.94
  884.2000 0.9976050  11309.66
  884.3000 0.9994110  11308.38
  884.4000 0.9997910  11307.10
  884.5000 0.9986460  11305.82
  884.6000 0.9962580  11304.54
  884.7000 0.9932150  11303.27
  884.8000 0.9902660  11301.99
  884.9000 0.9881370  11300.71
  885.0000 0.9873530  11299.44
  885.1000 0.9881060  11298.16
  885.2000 0.9902060  11296.88
  885.3000 0.9931340  11295.61
  885.4000 0.9961660  11294.33
  885.5000 0.9985470  11293.05
  885.6000 0.9996880  11291.78
  885.7000 0.9993050  11290.50
  885.8000 0.9974910  11289.23
  885.9000 0.9946890  11287.96
  886.0000 0.9915910  11286.68
  886.1000 0.9889600  11285.41
  886.2000 0.9874450  11284.13
  886.3000 0.9874160  11282.86
  886.4000 0.9888800  11281.59
  886.5000 0.9914730  11280.32
  886.6000 0.9945530  11279.04
  886.7000 0.9973540  11277.77
  886.8000 0.9991850  11276.50
  886.9000 0.9995900  11275.23
  887.0000 0.9984660  11273.96
  887.1000 0.9960870  11272.69
  887.2000 0.9930410  11271.42
  887.3000 0.9900750  11270.15
  887.4000 0.9879180  11268.88
  887.5000 0.9870990  11267.61
  887.6000 0.9878120  11266.34
  887.7000 0.9898670  11265.07
  887.8000 0.9927360  11263.80
  887.9000 0.9956770  11262.53
  888.0000 0.9979010  11261.26
  888.1000 0.9987660  11259.99
  888.2000 0.9979060  11258.73
  888.3000 0.9952960  11257.46
  888.4000 0.9912110  11256.19
  888.5000 0.9861140  11254.92
  888.6000 0.9804490  11253.66
  888.7000 0.9744590  11252.39
  888.8000 0.9679820  11251.13
  888.9000 0.9603750  11249.86
  889.0000 0.9505170  11248.59
  889.1000 0.9369030  11247.33
  889.2000 0.9178930  11246.06
  889.3000 0.8919060  11244.80
  889.4000 0.8577300  11243.53
  889.5000 0.8147750  11242.27
  889.6000 0.7631210  11241.01
  889.7000 0.7037050  11239.74
  889.8000 0.6380360  11238.48
  889.9000 0.5681820  11237.22
  890.0000 0.4965880  11235.96
  890.1000 0.4256380  11234.69
  890.2000 0.3576660  11233.43
  890.3000 0.2944910  11232.17
  890.4000 0.2375010  11230.91
  890.5000 0.1876030  11229.65
  890.6000 0.1450930  11228.39
  890.7000 0.1098930  11227.12
  890.8000 0.0814830  11225.86
  890.9000 0.0591389  11224.60
  891.0000 0.0420241  11223.34
  891.1000 0.0292296  11222.09
  891.2000 0.0199089  11220.83
  891.3000 0.0132743  11219.57
  891.4000 0.0086631  11218.31
  891.5000 0.0055362  11217.05
  891.6000 0.0034633  11215.79
  891.7000 0.0021223  11214.53
  891.8000 0.0012733  11213.28
  891.9000 0.0007479  11212.02
  892.0000 0.0004303  11210.76
  892.1000 0.0002424  11209.51
  892.2000 0.0000422  11208.25
  892.3000 0.0000000  11206.99
b15
  892.6000 0.0000000  11203.23
  892.7000 0.0000541  11201.97
  892.8000 0.0001309  11200.72
  892.9000 0.0002375  11199.46
  893.0000 0.0004220  11198.21
  893.1000 0.0007344  11196.95
  893.2000 0.0012511  11195.70
  893.3000 0.0020876  11194.45
  893.4000 0.0034116  11193.19
  893.5000 0.0054577  11191.94
  893.6000 0.0085503  11190.69
  893.7000 0.0131094  11189.44
  893.8000 0.0196798  11188.19
  893.9000 0.0289290  11186.93
  894.0000 0.0416209  11185.68
  894.1000 0.0586308  11184.43
  894.2000 0.0808304  11183.18
  894.3000 0.1091000  11181.93
  894.4000 0.1441900  11180.68
  894.5000 0.1865500  11179.43
  894.6000 0.2363610  11178.18
  894.7000 0.2932310  11176.93
  894.8000 0.3563610  11175.68
  894.9000 0.4244020  11174.43
  895.0000 0.4953860  11173.18
  895.1000 0.5671340  11171.94
  895.2000 0.6371050  11170.69
  895.3000 0.7029710  11169.44
  895.4000 0.7626560  11168.19
  895.5000 0.8145020  11166.95
  895.6000 0.8576760  11165.70
  895.7000 0.8919990  11164.45
  895.8000 0.9181160  11163.21
  895.9000 0.9372330  11161.96
  896.0000 0.9508910  11160.71
  896.1000 0.9607770  11159.47
  896.2000 0.9683870  11158.22
  896.3000 0.9748660  11156.98
  896.4000 0.9808700  11155.73
  896.5000 0.9865480  11154.49
  896.6000 0.9916730  11153.25
  896.7000 0.9957820  11152.00
  896.8000 0.9984160  11150.76
  896.9000 0.9992860  11149.51
  897.0000 0.9984120  11148.27
  897.1000 0.9961580  11147.03
  897.2000 0.9931730  11145.79
  897.3000 0.9902480  11144.54
  897.4000 0.9881360  11143.30
  897.5000 0.9873780  11142.06
  897.6000 0.9881700  11140.82
  897.7000 0.9903190  11139.58
  897.8000 0.9932960  11138.34
  897.9000 0.9963670  11137.10
  898.0000 0.9987690  11135.86
  898.1000 0.9999070  11134.62
  898.2000 0.9994990  11133.38
  898.3000 0.9976420  11132.14
  898.4000 0.9947920  11130.90
  898.5000 0.9916530  11129.66
  898.6000 0.9889970  11128.42
  898.7000 0.9874790  11127.18
  898.8000 0.9874710  11125.95
  898.9000 0.9889750  11124.71
  899.0000 0.9916150  11123.47
  899.1000 0.9947400  11122.23
  899.2000 0.9975710  11121.00
  899.3000 0.9994090  11119.76
  899.4000 0.9997980  11118.52
  899.5000 0.9986380  11117.29
  899.6000 0.9962120  11116.05
  899.7000 0.9931200  11114.82
  899.8000 0.9901220  11113.58
  899.9000 0.9879560  11112.35
  900.0000 0.9871570  11111.11
  900.1000 0.9879200  11109.88
  900.2000 0.9900540  11108.64
  900.3000 0.9930290  11107.41
  900.4000 0.9961110  11106.18
  900.5000 0.9985320  11104.94
  900.6000 0.9996940  11103.71
  900.7000 0.9993060  11102.48
  900.8000 0.9974620  11101.24
  900.9000 0.9946150  11100.01
  901.0000 0.9914670  11098.78
  901.1000 0.9887910  11097.55
  901.2000 0.9872510  11096.32
  901.3000 0.9872210  11095.08
  901.4000 0.9887090  11093.85
  901.5000 0.9913440  11092.62
  901.6000 0.9944750  11091.39
  901.7000 0.9973220  11090.16
  901.8000 0.9991830  11088.93
  901.9000 0.9995940  11087.70
  902.0000 0.9984510  11086.47
  902.1000 0.9960320  11085.25
  902.2000 0.9929360  11084.02
  902.3000 0.9899220  11082.79
  902.4000 0.9877300  11081.56
  902.5000 0.9868990  11080.33
  902.6000 0.9876260  11079.10
  902.7000 0.9897180  11077.88
  902.8000 0.9926360  11076.65
  902.9000 0.9956280  11075.42
  903.0000 0.9978930  11074.20
  903.1000 0.9987790  11072.97
  903.2000 0.9979170  11071.74
  903.3000 0.9952840  11070.52
  903.4000 0.9911640  11069.29
  903.5000 0.9860320  11068.07
  903.6000 0.9803470  11066.84
  903.7000 0.9743620  11065.62
  903.8000 0.9679220  11064.39
  903.9000 0.9603790  11063.17
  904.0000 0.9506080  11061.95
  904.1000 0.9370850  11060.72
  904.2000 0.9181560  11059.50
  904.3000 0.8922250  11058.28
  904.4000 0.8580570  11057.05
  904.5000 0.8150690  11055.83
  904.6000 0.7633270  11054.61
  904.7000 0.7037840  11053.39
  904.8000 0.6379670  11052.17
  904.9000 0.5679400  11050.94
  905.0000 0.4961930  11049.72
  905.1000 0.4251010  11048.50
  905.2000 0.3570250  11047.28
  905.3000 0.2937910  11046.06
  905.4000 0.2367700  11044.84
  905.5000 0.1868900  11043.62
  905.6000 0.1444210  11042.40
  905.7000 0.1092870  11041.18
  905.8000 0.0809594  11039.96
  905.9000 0.0586970  11038.75
  906.0000 0.0416666  11037.53
  906.1000 0.0289475  11036.31
  906.2000 0.0196930  11035.09
  906.3000 0.0131145  11033.87
  906.4000 0.0085471  11032.66
  906.5000 0.0046712  11031.44
  906.6000 0.0029355  11030.22
  906.7000 0.0018072  11029.01
  906.8000 0.0010894  11027.79
  906.9000 0.0006427  11026.57
  907.0000 0.0002882  11025.36
  907.1000 0.0001297  11024.14
  907.2000 0.0000413  11022.93
  907.3000 0.0000000  11021.71
